#omega[eV] ImEps[mu=1.43eV]
0	0
0.005	0
0.01	0
0.015	0
0.02	0
0.025	0
0.03	0
0.035	0
0.04	0
0.045	0
0.05	0
0.055	0
0.06	0
0.065	0
0.07	0
0.075	0
0.08	0
0.085	0
0.09	0
0.095	0
0.1	0
0.105	0
0.11	0
0.115	0
0.12	0
0.125	0
0.13	0
0.135	0
0.14	0
0.145	0
0.15	0
0.155	0
0.16	0
0.165	0
0.17	0
0.175	0
0.18	0
0.185	0
0.19	0
0.195	0
0.2	0
0.205	0
0.21	0
0.215	0
0.22	0
0.225	0
0.23	0
0.235	0
0.24	0
0.245	0
0.25	0
0.255	0
0.26	0
0.265	0
0.27	0
0.275	0
0.28	0
0.285	0
0.29	0
0.295	0
0.3	0
0.305	0
0.31	0
0.315	0
0.32	0
0.325	0
0.33	0
0.335	0
0.34	0
0.345	0
0.35	0
0.355	0
0.36	0
0.365	0
0.37	0
0.375	0
0.38	0
0.385	0
0.39	0
0.395	0
0.4	0
0.405	0
0.41	0
0.415	0
0.42	0
0.425	0
0.43	0
0.435	0
0.44	0
0.445	0
0.45	0
0.455	0
0.46	0
0.465	0
0.47	0
0.475	0
0.48	0
0.485	0
0.49	0
0.495	0
0.5	0
0.505	0
0.51	0
0.515	0
0.52	0
0.525	0
0.53	0
0.535	0
0.54	0
0.545	0
0.55	0
0.555	0
0.56	0
0.565	0
0.57	0
0.575	0
0.58	0
0.585	0
0.59	0
0.595	0
0.6	0
0.605	0
0.61	0
0.615	0
0.62	0
0.625	0
0.63	0
0.635	0
0.64	0
0.645	0
0.65	0
0.655	0
0.66	0
0.665	0
0.67	0
0.675	0
0.68	0
0.685	0
0.69	0
0.695	0
0.7	0
0.705	0
0.71	0
0.715	0
0.72	0
0.725	0
0.73	0
0.735	0
0.74	0
0.745	0
0.75	0
0.755	0
0.76	0
0.765	0
0.77	0
0.775	0
0.78	0
0.785	0
0.79	0
0.795	0
0.8	0
0.805	0
0.81	0
0.815	0
0.82	0
0.825	0
0.83	0
0.835	0
0.84	0
0.845	0
0.85	0
0.855	0
0.86	0
0.865	0
0.87	0
0.875	0
0.88	0
0.885	0
0.89	0
0.895	0
0.9	0
0.905	0
0.91	0
0.915	0
0.92	0
0.925	0
0.93	0
0.935	0
0.94	0
0.945	0
0.95	0
0.955	0
0.96	0
0.965	0
0.97	0
0.975	0
0.98	0
0.985	0
0.99	0
0.995	0
1	0
1.005	0
1.01	0
1.015	0
1.02	0
1.025	0
1.03	0
1.035	0
1.04	0
1.045	0
1.05	0
1.055	0
1.06	5.35747e-301
1.065	5.11825e-293
1.07	3.8081e-285
1.075	2.20659e-277
1.08	9.95779e-270
1.085	3.49969e-262
1.09	9.57905e-255
1.095	2.04193e-247
1.1	3.38991e-240
1.105	4.38288e-233
1.11	4.41325e-226
1.115	3.46085e-219
1.12	2.11366e-212
1.125	1.00534e-205
1.13	3.72406e-199
1.135	1.07435e-192
1.14	2.41381e-186
1.145	4.22364e-180
1.15	5.75568e-174
1.155	6.10847e-168
1.16	5.04888e-162
1.165	3.25001e-156
1.17	1.62929e-150
1.175	6.36124e-145
1.18	1.93424e-139
1.185	4.58042e-134
1.19	8.44747e-129
1.195	1.21332e-123
1.2	1.35722e-118
1.205	1.18237e-113
1.21	8.02197e-109
1.215	4.23874e-104
1.22	1.7443e-99
1.225	5.59025e-95
1.23	1.39531e-90
1.235	2.7123e-86
1.24	4.10615e-82
1.245	4.8413e-78
1.25	4.44549e-74
1.255	3.17914e-70
1.26	1.77065e-66
1.265	7.68056e-63
1.27	2.59473e-59
1.275	6.82704e-56
1.28	1.39901e-52
1.285	2.23285e-49
1.29	2.77562e-46
1.295	2.68738e-43
1.3	2.02666e-40
1.305	1.1905e-37
1.31	5.44749e-35
1.315	1.94181e-32
1.32	5.39256e-30
1.325	1.16682e-27
1.33	1.96738e-25
1.335	2.58536e-23
1.34	2.64847e-21
1.345	2.11557e-19
1.35	1.31817e-17
1.355	6.40963e-16
1.36	2.43369e-14
1.365	7.22123e-13
1.37	1.67614e-11
1.375	3.04748e-10
1.38	4.34777e-09
1.385	4.87858e-08
1.39	4.31872e-07
1.395	3.02848e-06
1.4	1.69142e-05
1.405	7.57789e-05
1.41	0.000274907
1.415	0.000817327
1.42	0.00202161
1.425	0.00423488
1.43	0.00766396
1.435	0.0122285
1.44	0.0175366
1.445	0.0230052
1.45	0.0280991
1.455	0.0326092
1.46	0.0367632
1.465	0.040955
1.47	0.0452418
1.475	0.0491589
1.48	0.0521707
1.485	0.0543177
1.49	0.0563414
1.495	0.0591265
1.5	0.062952
1.505	0.0672247
1.51	0.0710051
1.515	0.0738706
1.52	0.0762045
1.525	0.0785804
1.53	0.0810266
1.535	0.0831437
1.54	0.084907
1.545	0.0870427
1.55	0.0904506
1.555	0.0953453
1.56	0.101041
1.565	0.106524
1.57	0.111168
1.575	0.114886
1.58	0.117733
1.585	0.119585
1.59	0.120305
1.595	0.120195
1.6	0.120063
1.605	0.120682
1.61	0.122257
1.615	0.124589
1.62	0.127554
1.625	0.131087
1.63	0.134894
1.635	0.138583
1.64	0.141978
1.645	0.144961
1.65	0.147226
1.655	0.148501
1.66	0.148999
1.665	0.149436
1.67	0.150624
1.675	0.152994
1.68	0.156372
1.685	0.16012
1.69	0.163563
1.695	0.166383
1.7	0.168641
1.705	0.170477
1.71	0.171873
1.715	0.172761
1.72	0.173478
1.725	0.17499
1.73	0.178322
1.735	0.183619
1.74	0.189849
1.745	0.195504
1.75	0.199565
1.755	0.202025
1.76	0.203773
1.765	0.205965
1.77	0.209158
1.775	0.212902
1.78	0.216302
1.785	0.21894
1.79	0.221203
1.795	0.223888
1.8	0.227598
1.805	0.232418
1.81	0.237999
1.815	0.243823
1.82	0.249254
1.825	0.253538
1.83	0.256245
1.835	0.257875
1.84	0.2597
1.845	0.262775
1.85	0.267212
1.855	0.272423
1.86	0.277746
1.865	0.282659
1.87	0.286697
1.875	0.289605
1.88	0.291633
1.885	0.293462
1.89	0.295821
1.895	0.299152
1.9	0.303438
1.905	0.308173
1.91	0.312598
1.915	0.316184
1.92	0.318979
1.925	0.32148
1.93	0.324206
1.935	0.327432
1.94	0.331225
1.945	0.33544
1.95	0.339582
1.955	0.342913
1.96	0.345004
1.965	0.346125
1.97	0.346994
1.975	0.34834
1.98	0.350817
1.985	0.354899
1.99	0.36033
1.995	0.365806
2	0.36972
2.005	0.371418
2.01	0.371711
2.015	0.372267
2.02	0.374545
2.025	0.378985
2.03	0.384888
2.035	0.390991
2.04	0.396352
2.045	0.400898
2.05	0.405359
2.055	0.410706
2.06	0.417299
2.065	0.424274
2.07	0.42992
2.075	0.433001
2.08	0.433694
2.085	0.433196
2.09	0.432724
2.095	0.433043
2.1	0.434548
2.105	0.437343
2.11	0.441222
2.115	0.445745
2.12	0.450367
2.125	0.454527
2.13	0.457747
2.135	0.459943
2.14	0.461687
2.145	0.46387
2.15	0.466893
2.155	0.470324
2.16	0.47351
2.165	0.476372
2.17	0.47943
2.175	0.483156
2.18	0.487382
2.185	0.491365
2.19	0.494513
2.195	0.497165
2.2	0.500526
2.205	0.505618
2.21	0.512354
2.215	0.519707
2.22	0.526626
2.225	0.532638
2.23	0.537783
2.235	0.542336
2.24	0.546638
2.245	0.550964
2.25	0.555432
2.255	0.560062
2.26	0.564838
2.265	0.56959
2.27	0.574018
2.275	0.578059
2.28	0.58205
2.285	0.586305
2.29	0.590696
2.295	0.594915
2.3	0.599037
2.305	0.603531
2.31	0.60856
2.315	0.613479
2.32	0.617381
2.325	0.620108
2.33	0.622362
2.335	0.624753
2.34	0.627188
2.345	0.629369
2.35	0.631486
2.355	0.634119
2.36	0.63777
2.365	0.642709
2.37	0.649031
2.375	0.656469
2.38	0.664142
2.385	0.670872
2.39	0.67602
2.395	0.679941
2.4	0.683435
2.405	0.686845
2.41	0.689964
2.415	0.692836
2.42	0.696251
2.425	0.701153
2.43	0.707707
2.435	0.715155
2.44	0.72249
2.445	0.729051
2.45	0.734631
2.455	0.73943
2.46	0.744094
2.465	0.749474
2.47	0.755887
2.475	0.762696
2.48	0.768972
2.485	0.774438
2.49	0.779519
2.495	0.784701
2.5	0.790215
2.505	0.796218
2.51	0.802942
2.515	0.810494
2.52	0.818593
2.525	0.826637
2.53	0.83416
2.535	0.841178
2.54	0.847827
2.545	0.853824
2.55	0.858832
2.555	0.86331
2.56	0.868369
2.565	0.874654
2.57	0.881784
2.575	0.888854
2.58	0.895084
2.585	0.90011
2.59	0.90425
2.595	0.908587
2.6	0.914325
2.605	0.921818
2.61	0.930294
2.615	0.93855
2.62	0.945885
2.625	0.952615
2.63	0.959874
2.635	0.968777
2.64	0.97952
2.645	0.991285
2.65	1.00292
2.655	1.01365
2.66	1.02352
2.665	1.03318
2.67	1.04309
2.675	1.05265
2.68	1.06068
2.685	1.06697
2.69	1.07263
2.695	1.079
2.7	1.0866
2.705	1.09538
2.71	1.10519
2.715	1.11584
2.72	1.127
2.725	1.13856
2.73	1.15068
2.735	1.16327
2.74	1.17586
2.745	1.1881
2.75	1.20008
2.755	1.21185
2.76	1.22302
2.765	1.23308
2.77	1.24209
2.775	1.25091
2.78	1.26064
2.785	1.27165
2.79	1.28329
2.795	1.29458
2.8	1.30502
2.805	1.31504
2.81	1.32595
2.815	1.33926
2.82	1.35565
2.825	1.37416
2.83	1.39276
2.835	1.40986
2.84	1.42536
2.845	1.44011
2.85	1.45463
2.855	1.46867
2.86	1.48203
2.865	1.49518
2.87	1.50915
2.875	1.52525
2.88	1.54448
2.885	1.56687
2.89	1.59123
2.895	1.61588
2.9	1.63987
2.905	1.66336
2.91	1.68716
2.915	1.71201
2.92	1.7383
2.925	1.76601
2.93	1.79468
2.935	1.82332
2.94	1.85091
2.945	1.87726
2.95	1.90339
2.955	1.93087
2.96	1.96106
2.965	1.99446
2.97	2.03074
2.975	2.06914
2.98	2.10889
2.985	2.14922
2.99	2.18951
2.995	2.23015
3	2.27301
3.005	2.32047
3.01	2.37373
3.015	2.43231
3.02	2.49568
3.025	2.56508
3.03	2.64391
3.035	2.73787
3.04	2.8572
3.045	3.02168
3.05	3.26288
3.055	3.6133
3.06	4.07773
3.065	4.60593
3.07	5.1019
3.075	5.47605
3.08	5.69651
3.085	5.79377
3.09	5.825
3.095	5.83722
3.1	5.8526
3.105	5.87301
3.11	5.89212
3.115	5.90555
3.12	5.9135
3.125	5.91748
3.13	5.91751
3.135	5.91326
3.14	5.90645
3.145	5.90084
3.15	5.89966
3.155	5.90364
3.16	5.91136
3.165	5.92062
3.17	5.92949
3.175	5.93704
3.18	5.94412
3.185	5.9531
3.19	5.96575
3.195	5.9814
3.2	5.99773
3.205	6.01337
3.21	6.02904
3.215	6.04578
3.22	6.06327
3.225	6.08069
3.23	6.09898
3.235	6.12127
3.24	6.15164
3.245	6.19515
3.25	6.2615
3.255	6.37034
3.26	6.55026
3.265	6.82136
3.27	7.1672
3.275	7.5255
3.28	7.81865
3.285	8.00113
3.29	8.07887
3.295	8.08989
3.3	8.07361
3.305	8.05391
3.31	8.03818
3.315	8.02434
3.32	8.00887
3.325	7.99131
3.33	7.97402
3.335	7.95928
3.34	7.94662
3.345	7.93229
3.35	7.91189
3.355	7.88417
3.36	7.85193
3.365	7.81901
3.37	7.78718
3.375	7.75665
3.38	7.72806
3.385	7.70292
3.39	7.68193
3.395	7.66379
3.4	7.64573
3.405	7.6253
3.41	7.60181
3.415	7.57691
3.42	7.55391
3.425	7.53615
3.43	7.52469
3.435	7.51726
3.44	7.50953
3.445	7.49817
3.45	7.48275
3.455	7.46516
3.46	7.44774
3.465	7.4318
3.47	7.41707
3.475	7.40259
3.48	7.38808
3.485	7.37469
3.49	7.36383
3.495	7.35555
3.5	7.34811
3.505	7.33942
3.51	7.32868
3.515	7.31641
3.52	7.30308
3.525	7.28837
3.53	7.27172
3.535	7.25316
3.54	7.23355
3.545	7.21443
3.55	7.19733
3.555	7.18263
3.56	7.16892
3.565	7.15364
3.57	7.1349
3.575	7.11287
3.58	7.08971
3.585	7.06793
3.59	7.04888
3.595	7.03252
3.6	7.01822
3.605	7.00532
3.61	6.9932
3.615	6.98126
3.62	6.96875
3.625	6.95491
3.63	6.93926
3.635	6.92207
3.64	6.90428
3.645	6.88709
3.65	6.87138
3.655	6.85718
3.66	6.84362
3.665	6.82953
3.67	6.81423
3.675	6.79781
3.68	6.78109
3.685	6.76514
3.69	6.7506
3.695	6.73712
3.7	6.72404
3.705	6.71127
3.71	6.69896
3.715	6.68655
3.72	6.67307
3.725	6.65823
3.73	6.64258
3.735	6.62668
3.74	6.61106
3.745	6.59694
3.75	6.586
3.755	6.57848
3.76	6.57213
3.765	6.56414
3.77	6.55392
3.775	6.54321
3.78	6.53344
3.785	6.52404
3.79	6.51363
3.795	6.50193
3.8	6.48992
3.805	6.47871
3.81	6.46869
3.815	6.45922
3.82	6.44869
3.825	6.43541
3.83	6.41913
3.835	6.40185
3.84	6.3869
3.845	6.37649
3.85	6.36984
3.855	6.36366
3.86	6.3547
3.865	6.34214
3.87	6.32765
3.875	6.31356
3.88	6.30109
3.885	6.28961
3.89	6.27752
3.895	6.26413
3.9	6.25099
3.905	6.24084
3.91	6.23482
3.915	6.23105
3.92	6.22624
3.925	6.21837
3.93	6.20766
3.935	6.19575
3.94	6.18462
3.945	6.17575
3.95	6.16941
3.955	6.16442
3.96	6.15924
3.965	6.15362
3.97	6.1486
3.975	6.14456
3.98	6.14023
3.985	6.13426
3.99	6.12712
3.995	6.12038
4	6.11447
4.005	6.10832
4.01	6.10103
4.015	6.09311
4.02	6.08595
4.025	6.08029
4.03	6.07544
4.035	6.06991
4.04	6.06251
4.045	6.05312
4.05	6.04271
4.055	6.03342
4.06	6.0277
4.065	6.02659
4.07	6.02847
4.075	6.03001
4.08	6.02846
4.085	6.02294
4.09	6.01409
4.095	6.0033
4.1	5.99256
4.105	5.98398
4.11	5.97865
4.115	5.97586
4.12	5.97377
4.125	5.97088
4.13	5.96702
4.135	5.9631
4.14	5.95999
4.145	5.95766
4.15	5.95553
4.155	5.9533
4.16	5.95109
4.165	5.94909
4.17	5.94737
4.175	5.94577
4.18	5.9437
4.185	5.94033
4.19	5.9354
4.195	5.92974
4.2	5.92477
4.205	5.92163
4.21	5.92077
4.215	5.92188
4.22	5.92387
4.225	5.92517
4.23	5.92405
4.235	5.9197
4.24	5.91321
4.245	5.90706
4.25	5.90333
4.255	5.90225
4.26	5.90281
4.265	5.90417
4.27	5.90594
4.275	5.90747
4.28	5.90783
4.285	5.90684
4.29	5.90525
4.295	5.9039
4.3	5.90282
4.305	5.90153
4.31	5.89967
4.315	5.89747
4.32	5.89587
4.325	5.89585
4.33	5.89746
4.335	5.8997
4.34	5.90141
4.345	5.90203
4.35	5.90186
4.355	5.902
4.36	5.90387
4.365	5.90812
4.37	5.91391
4.375	5.91949
4.38	5.92344
4.385	5.92563
4.39	5.92711
4.395	5.92918
4.4	5.93234
4.405	5.93628
4.41	5.94062
4.415	5.94568
4.42	5.95213
4.425	5.95984
4.43	5.96735
4.435	5.97323
4.44	5.97767
4.445	5.98257
4.45	5.99004
4.455	6.00122
4.46	6.01606
4.465	6.03369
4.47	6.05248
4.475	6.07032
4.48	6.08565
4.485	6.09874
4.49	6.11181
4.495	6.12711
4.5	6.14499
4.505	6.16398
4.51	6.18307
4.515	6.20351
4.52	6.22834
4.525	6.26009
4.53	6.29901
4.535	6.34304
4.54	6.38913
4.545	6.43454
4.55	6.47766
4.555	6.51856
4.56	6.55876
4.565	6.60019
4.57	6.64428
4.575	6.69201
4.58	6.74433
4.585	6.80178
4.59	6.86381
4.595	6.92871
4.6	6.99471
4.605	7.06167
4.61	7.1322
4.615	7.21155
4.62	7.30592
4.625	7.42008
4.63	7.5554
4.635	7.70842
4.64	7.87084
4.645	8.03184
4.65	8.18228
4.655	8.31779
4.66	8.43831
4.665	8.54546
4.67	8.6406
4.675	8.72483
4.68	8.79996
4.685	8.86893
4.69	8.93533
4.695	9.00246
4.7	9.07222
4.705	9.14466
4.71	9.2187
4.715	9.2932
4.72	9.36746
4.725	9.44099
4.73	9.51352
4.735	9.58501
4.74	9.65528
4.745	9.7237
4.75	9.78955
4.755	9.85252
4.76	9.91271
4.765	9.97051
4.77	10.0264
4.775	10.0813
4.78	10.1361
4.785	10.1923
4.79	10.2517
4.795	10.3163
4.8	10.3893
4.805	10.4755
4.81	10.5808
4.815	10.7087
4.82	10.8552
4.825	11.0075
4.83	11.1491
4.835	11.2681
4.84	11.362
4.845	11.4358
4.85	11.4972
4.855	11.5524
4.86	11.6049
4.865	11.6555
4.87	11.7031
4.875	11.7472
4.88	11.7886
4.885	11.829
4.89	11.87
4.895	11.9136
4.9	11.9607
4.905	12.0107
4.91	12.0619
4.915	12.113
4.92	12.1639
4.925	12.215
4.93	12.2672
4.935	12.3217
4.94	12.3782
4.945	12.4359
4.95	12.4947
4.955	12.5563
4.96	12.6215
4.965	12.6891
4.97	12.7571
4.975	12.8245
4.98	12.8915
4.985	12.9596
4.99	13.0296
4.995	13.1014
5	13.1741
5.005	13.2469
5.01	13.3195
5.015	13.3929
5.02	13.4688
5.025	13.5479
5.03	13.6304
5.035	13.7173
5.04	13.8104
5.045	13.9109
5.05	14.0188
5.055	14.1326
5.06	14.2493
5.065	14.3654
5.07	14.4793
5.075	14.593
5.08	14.7111
5.085	14.8358
5.09	14.9659
5.095	15.0986
5.1	15.2339
5.105	15.3754
5.11	15.528
5.115	15.6941
5.12	15.8723
5.125	16.0587
5.13	16.25
5.135	16.4443
5.14	16.6421
5.145	16.8468
5.15	17.0632
5.155	17.2951
5.16	17.5432
5.165	17.8061
5.17	18.0828
5.175	18.3753
5.18	18.6898
5.185	19.034
5.19	19.4148
5.195	19.8393
5.2	20.316
5.205	20.8548
5.21	21.4677
5.215	22.1709
5.22	22.9895
5.225	23.9677
5.23	25.1803
5.235	26.7264
5.24	28.672
5.245	30.9414
5.25	33.2345
5.255	35.093
5.26	36.1204
5.265	36.1778
5.27	35.3905
5.275	34.0123
5.28	32.3044
5.285	30.492
5.29	28.753
5.295	27.2018
5.3	25.8777
5.305	24.7608
5.31	23.8072
5.315	22.979
5.32	22.2536
5.325	21.6167
5.33	21.0544
5.335	20.5511
5.34	20.0931
5.345	19.6708
5.35	19.2792
5.355	18.9148
5.36	18.5748
5.365	18.2571
5.37	17.9604
5.375	17.6814
5.38	17.413
5.385	17.1492
5.39	16.889
5.395	16.636
5.4	16.3951
5.405	16.1699
5.41	15.9618
5.415	15.7694
5.42	15.5883
5.425	15.4138
5.43	15.2422
5.435	15.0708
5.44	14.8975
5.445	14.7213
5.45	14.5424
5.455	14.3607
5.46	14.1757
5.465	13.9892
5.47	13.8074
5.475	13.6376
5.48	13.4835
5.485	13.3431
5.49	13.2117
5.495	13.0853
5.5	12.9619
5.505	12.8414
5.51	12.7239
5.515	12.6094
5.52	12.4976
5.525	12.387
5.53	12.2755
5.535	12.1614
5.54	12.0454
5.545	11.9311
5.55	11.8224
5.555	11.7216
5.56	11.6285
5.565	11.5412
5.57	11.4573
5.575	11.3748
5.58	11.2936
5.585	11.2144
5.59	11.1366
5.595	11.0587
5.6	10.9803
5.605	10.9032
5.61	10.8297
5.615	10.7602
5.62	10.6932
5.625	10.6275
5.63	10.5631
5.635	10.5003
5.64	10.4392
5.645	10.3793
5.65	10.3197
5.655	10.2604
5.66	10.2014
5.665	10.142
5.67	10.0818
5.675	10.0204
5.68	9.95782
5.685	9.89408
5.69	9.82986
5.695	9.76659
5.7	9.70567
5.705	9.64761
5.71	9.592
5.715	9.53817
5.72	9.4859
5.725	9.43561
5.73	9.38768
5.735	9.34161
5.74	9.29626
5.745	9.25098
5.75	9.20619
5.755	9.16277
5.76	9.12133
5.765	9.08228
5.77	9.04568
5.775	9.01052
5.78	8.97501
5.785	8.93847
5.79	8.90241
5.795	8.86887
5.8	8.8381
5.805	8.80842
5.81	8.77839
5.815	8.74854
5.82	8.72068
5.825	8.69583
5.83	8.67305
5.835	8.65038
5.84	8.62649
5.845	8.60154
5.85	8.57649
5.855	8.55194
5.86	8.5277
5.865	8.50367
5.87	8.48053
5.875	8.45912
5.88	8.43918
5.885	8.41941
5.89	8.39886
5.895	8.37795
5.9	8.35812
5.905	8.3406
5.91	8.32575
5.915	8.3134
5.92	8.3036
5.925	8.29681
5.93	8.29342
5.935	8.29332
5.94	8.29612
5.945	8.302
5.95	8.31221
5.955	8.32831
5.96	8.34976
5.965	8.372
5.97	8.38791
5.975	8.39208
5.98	8.38366
5.985	8.36534
5.99	8.34024
5.995	8.31022
6	8.27648
6.005	8.24091
6.01	8.20613
6.015	8.17419
6.02	8.14573
6.025	8.12011
6.03	8.09616
6.035	8.07299
6.04	8.05077
6.045	8.03076
6.05	8.0146
6.055	8.00381
6.06	7.9987
6.065	7.99667
6.07	7.99153
6.075	7.97635
6.08	7.94771
6.085	7.90726
6.09	7.85942
6.095	7.80834
6.1	7.75675
6.105	7.70624
6.11	7.6579
6.115	7.61237
6.12	7.56963
6.125	7.52873
6.13	7.4881
6.135	7.44638
6.14	7.40323
6.145	7.35953
6.15	7.31693
6.155	7.27698
6.16	7.24042
6.165	7.20697
6.17	7.1755
6.175	7.14462
6.18	7.11325
6.185	7.08116
6.19	7.04883
6.195	7.01709
6.2	6.98712
6.205	6.96007
6.21	6.93606
6.215	6.9137
6.22	6.89082
6.225	6.8658
6.23	6.83847
6.235	6.81006
6.24	6.78236
6.245	6.75662
6.25	6.73307
6.255	6.71109
6.26	6.68986
6.265	6.66888
6.27	6.64833
6.275	6.6288
6.28	6.6108
6.285	6.59471
6.29	6.58068
6.295	6.56817
6.3	6.55571
6.305	6.54181
6.31	6.52608
6.315	6.50911
6.32	6.49171
6.325	6.4747
6.33	6.45892
6.335	6.44508
6.34	6.43333
6.345	6.42296
6.35	6.41264
6.355	6.40136
6.36	6.38927
6.365	6.37766
6.37	6.36789
6.375	6.36042
6.38	6.35447
6.385	6.34872
6.39	6.34244
6.395	6.3359
6.4	6.32983
6.405	6.32468
6.41	6.32054
6.415	6.31731
6.42	6.31489
6.425	6.31327
6.43	6.31254
6.435	6.31273
6.44	6.31381
6.445	6.31594
6.45	6.3194
6.455	6.32427
6.46	6.33001
6.465	6.33595
6.47	6.34208
6.475	6.34912
6.48	6.35756
6.485	6.36707
6.49	6.37678
6.495	6.38633
6.5	6.3965
6.505	6.40867
6.51	6.42352
6.515	6.44022
6.52	6.45722
6.525	6.47383
6.53	6.49101
6.535	6.51076
6.54	6.53476
6.545	6.5634
6.55	6.59579
6.555	6.63054
6.56	6.66668
6.565	6.70399
6.57	6.74277
6.575	6.7833
6.58	6.82532
6.585	6.86841
6.59	6.91281
6.595	6.95985
6.6	7.01139
6.605	7.06903
6.61	7.13392
6.615	7.20653
6.62	7.2866
6.625	7.37381
6.63	7.4688
6.635	7.5734
6.64	7.68979
6.645	7.8199
6.65	7.96578
6.655	8.12971
6.66	8.31232
6.665	8.51
6.67	8.7154
6.675	8.92297
6.68	9.13553
6.685	9.36641
6.69	9.63621
6.695	9.96686
6.7	10.3736
6.705	10.8542
6.71	11.3764
6.715	11.8675
6.72	12.2089
6.725	12.2527
6.73	11.8848
6.735	11.1151
6.74	10.1142
6.745	9.13165
6.75	8.35445
6.755	7.83193
6.76	7.50951
6.765	7.30634
6.77	7.1634
6.775	7.04985
6.78	6.95191
6.785	6.86344
6.79	6.78205
6.795	6.70773
6.8	6.6412
6.805	6.58239
6.81	6.53003
6.815	6.48242
6.82	6.43844
6.825	6.39801
6.83	6.36166
6.835	6.32953
6.84	6.30074
6.845	6.2737
6.85	6.24715
6.855	6.22096
6.86	6.19612
6.865	6.17379
6.87	6.15421
6.875	6.13641
6.88	6.11901
6.885	6.10129
6.89	6.08372
6.895	6.06747
6.9	6.05372
6.905	6.04324
6.91	6.03616
6.915	6.03212
6.92	6.03078
6.925	6.03268
6.93	6.03975
6.935	6.05519
6.94	6.0825
6.945	6.12314
6.95	6.17313
6.955	6.2218
6.96	6.2558
6.965	6.26648
6.97	6.25404
6.975	6.22506
6.98	6.18709
6.985	6.14546
6.99	6.10309
6.995	6.06142
7	6.02106
7.005	5.98233
7.01	5.9455
7.015	5.91079
7.02	5.878
7.025	5.84649
7.03	5.81543
7.035	5.78433
7.04	5.75322
7.045	5.72273
7.05	5.69386
7.055	5.66727
7.06	5.64242
7.065	5.61741
7.07	5.59031
7.075	5.5609
7.08	5.53112
7.085	5.5035
7.09	5.47926
7.095	5.45767
7.1	5.43684
7.105	5.41524
7.11	5.39258
7.115	5.36942
7.12	5.34625
7.125	5.32314
7.13	5.29994
7.135	5.27658
7.14	5.25309
7.145	5.22944
7.15	5.20545
7.155	5.1811
7.16	5.15689
7.165	5.13384
7.17	5.11268
7.175	5.09307
7.18	5.07386
7.185	5.05423
7.19	5.0343
7.195	5.01481
7.2	4.99625
7.205	4.97853
7.21	4.96115
7.215	4.94364
7.22	4.92583
7.225	4.90795
7.23	4.89048
7.235	4.87395
7.24	4.85847
7.245	4.84364
7.25	4.82889
7.255	4.814
7.26	4.79918
7.265	4.78496
7.27	4.77155
7.275	4.7584
7.28	4.7443
7.285	4.72833
7.29	4.71054
7.295	4.69191
7.3	4.67359
7.305	4.65623
7.31	4.63979
7.315	4.62391
7.32	4.60839
7.325	4.59313
7.33	4.57787
7.335	4.56227
7.34	4.54641
7.345	4.53089
7.35	4.51653
7.355	4.50376
7.36	4.49214
7.365	4.48051
7.37	4.46772
7.375	4.45339
7.38	4.43799
7.385	4.42247
7.39	4.40788
7.395	4.39491
7.4	4.38341
7.405	4.37229
7.41	4.36037
7.415	4.34725
7.42	4.3334
7.425	4.31951
7.43	4.30591
7.435	4.29258
7.44	4.27938
7.445	4.26619
7.45	4.25291
7.455	4.23958
7.46	4.2265
7.465	4.21407
7.47	4.20239
7.475	4.19103
7.48	4.17942
7.485	4.1674
7.49	4.15527
7.495	4.14335
7.5	4.13167
7.505	4.11996
7.51	4.10787
7.515	4.09534
7.52	4.08273
7.525	4.07053
7.53	4.05887
7.535	4.04728
7.54	4.03515
7.545	4.02238
7.55	4.0093
7.555	3.99626
7.56	3.9833
7.565	3.97021
7.57	3.95674
7.575	3.94287
7.58	3.92891
7.585	3.9152
7.59	3.90169
7.595	3.88812
7.6	3.87467
7.605	3.86188
7.61	3.85009
7.615	3.83889
7.62	3.82757
7.625	3.81579
7.63	3.80375
7.635	3.79179
7.64	3.78002
7.645	3.76826
7.65	3.75623
7.655	3.74365
7.66	3.7303
7.665	3.71608
7.67	3.70114
7.675	3.68601
7.68	3.6714
7.685	3.65785
7.69	3.64563
7.695	3.63471
7.7	3.62463
7.705	3.61464
7.71	3.604
7.715	3.59233
7.72	3.57971
7.725	3.5667
7.73	3.55405
7.735	3.54235
7.74	3.5316
7.745	3.52121
7.75	3.51043
7.755	3.4988
7.76	3.48632
7.765	3.47328
7.77	3.46002
7.775	3.44693
7.78	3.43432
7.785	3.42225
7.79	3.41066
7.795	3.39939
7.8	3.38826
7.805	3.3769
7.81	3.36495
7.815	3.35229
7.82	3.33918
7.825	3.32612
7.83	3.31373
7.835	3.30251
7.84	3.29252
7.845	3.28321
7.85	3.27357
7.855	3.26272
7.86	3.25048
7.865	3.23756
7.87	3.22513
7.875	3.21413
7.88	3.20479
7.885	3.19668
7.89	3.18898
7.895	3.18085
7.9	3.17189
7.905	3.16227
7.91	3.15236
7.915	3.14238
7.92	3.13253
7.925	3.1231
7.93	3.11428
7.935	3.10574
7.94	3.09663
7.945	3.0862
7.95	3.0746
7.955	3.06284
7.96	3.0519
7.965	3.04189
7.97	3.03211
7.975	3.0219
7.98	3.01123
7.985	3.00065
7.99	2.99086
7.995	2.98217
8	2.97428
8.005	2.96649
8.01	2.95815
8.015	2.94896
8.02	2.93893
8.025	2.92816
8.03	2.91706
8.035	2.90649
8.04	2.89741
8.045	2.89011
8.05	2.88393
8.055	2.87778
8.06	2.87084
8.065	2.86291
8.07	2.85426
8.075	2.84527
8.08	2.83619
8.085	2.8271
8.09	2.81802
8.095	2.80908
8.1	2.80052
8.105	2.79254
8.11	2.78511
8.115	2.77795
8.12	2.77062
8.125	2.76267
8.13	2.7538
8.135	2.74411
8.14	2.73414
8.145	2.72463
8.15	2.71609
8.155	2.70864
8.16	2.70215
8.165	2.69629
8.17	2.69058
8.175	2.68446
8.18	2.67756
8.185	2.66985
8.19	2.66158
8.195	2.65302
8.2	2.64449
8.205	2.63628
8.21	2.62871
8.215	2.62194
8.22	2.61591
8.225	2.61029
8.23	2.60469
8.235	2.59869
8.24	2.5919
8.245	2.5841
8.25	2.57539
8.255	2.56625
8.26	2.55736
8.265	2.54928
8.27	2.54214
8.275	2.53557
8.28	2.529
8.285	2.52195
8.29	2.51425
8.295	2.50595
8.3	2.49728
8.305	2.48871
8.31	2.48067
8.315	2.47338
8.32	2.46671
8.325	2.46036
8.33	2.45418
8.335	2.44822
8.34	2.44258
8.345	2.43727
8.35	2.43213
8.355	2.42693
8.36	2.4215
8.365	2.41571
8.37	2.40952
8.375	2.40301
8.38	2.39628
8.385	2.38949
8.39	2.38282
8.395	2.37635
8.4	2.3701
8.405	2.36401
8.41	2.35811
8.415	2.35243
8.42	2.34689
8.425	2.34108
8.43	2.33456
8.435	2.32729
8.44	2.31977
8.445	2.31277
8.45	2.30683
8.455	2.30198
8.46	2.29772
8.465	2.29344
8.47	2.2888
8.475	2.28391
8.48	2.27916
8.485	2.27483
8.49	2.27085
8.495	2.26683
8.5	2.26246
8.505	2.25782
8.51	2.25324
8.515	2.24895
8.52	2.24483
8.525	2.24069
8.53	2.23651
8.535	2.23256
8.54	2.22911
8.545	2.22597
8.55	2.22257
8.555	2.21844
8.56	2.21362
8.565	2.20848
8.57	2.2033
8.575	2.19809
8.58	2.19276
8.585	2.18718
8.59	2.18132
8.595	2.17533
8.6	2.16957
8.605	2.16439
8.61	2.1599
8.615	2.15592
8.62	2.15226
8.625	2.14893
8.63	2.14604
8.635	2.1435
8.64	2.1409
8.645	2.13776
8.65	2.13379
8.655	2.12908
8.66	2.12391
8.665	2.1186
8.67	2.1134
8.675	2.10845
8.68	2.10389
8.685	2.09984
8.69	2.09627
8.695	2.09297
8.7	2.08961
8.705	2.08592
8.71	2.08182
8.715	2.07743
8.72	2.07293
8.725	2.06854
8.73	2.06446
8.735	2.06073
8.74	2.05722
8.745	2.05369
8.75	2.04996
8.755	2.046
8.76	2.04187
8.765	2.03762
8.77	2.03322
8.775	2.02859
8.78	2.02373
8.785	2.01876
8.79	2.01391
8.795	2.00946
8.8	2.00568
8.805	2.00267
8.81	2.00018
8.815	1.99766
8.82	1.99463
8.825	1.99104
8.83	1.98721
8.835	1.98351
8.84	1.98003
8.845	1.97656
8.85	1.97291
8.855	1.96902
8.86	1.96497
8.865	1.9609
8.87	1.95697
8.875	1.95321
8.88	1.94962
8.885	1.94625
8.89	1.94317
8.895	1.94041
8.9	1.93782
8.905	1.93515
8.91	1.93212
8.915	1.92858
8.92	1.92458
8.925	1.92049
8.93	1.91682
8.935	1.91384
8.94	1.91131
8.945	1.90869
8.95	1.90546
8.955	1.90153
8.96	1.8972
8.965	1.89293
8.97	1.88899
8.975	1.88536
8.98	1.88181
8.985	1.8781
8.99	1.87411
8.995	1.86995
9	1.86581
9.005	1.86182
9.01	1.85803
9.015	1.85454
9.02	1.85142
9.025	1.84859
9.03	1.8457
9.035	1.84224
9.04	1.83787
9.045	1.83273
9.05	1.8274
9.055	1.82251
9.06	1.81834
9.065	1.81475
9.07	1.8113
9.075	1.80767
9.08	1.8038
9.085	1.79989
9.09	1.79622
9.095	1.79297
9.1	1.79011
9.105	1.78746
9.11	1.78471
9.115	1.78172
9.12	1.7786
9.125	1.77548
9.13	1.77241
9.135	1.76946
9.14	1.76676
9.145	1.76446
9.15	1.76252
9.155	1.76081
9.16	1.75917
9.165	1.75747
9.17	1.7555
9.175	1.75315
9.18	1.75055
9.185	1.74796
9.19	1.74562
9.195	1.74349
9.2	1.74134
9.205	1.73904
9.21	1.73675
9.215	1.73496
9.22	1.73405
9.225	1.73402
9.23	1.73442
9.235	1.73481
9.24	1.73501
9.245	1.73503
9.25	1.73484
9.255	1.73433
9.26	1.73352
9.265	1.73267
9.27	1.73224
9.275	1.73255
9.28	1.73356
9.285	1.73496
9.29	1.73654
9.295	1.73829
9.3	1.74019
9.305	1.7419
9.31	1.74291
9.315	1.74295
9.32	1.74229
9.325	1.74162
9.33	1.74163
9.335	1.74252
9.34	1.74385
9.345	1.74483
9.35	1.74484
9.355	1.7439
9.36	1.74261
9.365	1.74163
9.37	1.74122
9.375	1.74128
9.38	1.74159
9.385	1.74193
9.39	1.74202
9.395	1.74168
9.4	1.74092
9.405	1.73994
9.41	1.73892
9.415	1.73788
9.42	1.73675
9.425	1.73542
9.43	1.73384
9.435	1.73216
9.44	1.73055
9.445	1.72912
9.45	1.72788
9.455	1.72698
9.46	1.72682
9.465	1.72791
9.47	1.73054
9.475	1.73474
9.48	1.74055
9.485	1.74821
9.49	1.75785
9.495	1.76897
9.5	1.78038
9.505	1.79084
9.51	1.79991
9.515	1.80832
9.52	1.81768
9.525	1.82972
9.53	1.84581
9.535	1.86705
9.54	1.89479
9.545	1.93036
9.55	1.97347
9.555	2.02074
9.56	2.06637
9.565	2.10454
9.57	2.13168
9.575	2.14723
9.58	2.15321
9.585	2.15291
9.59	2.14946
9.595	2.14468
9.6	2.13897
9.605	2.13195
9.61	2.12326
9.615	2.11308
9.62	2.10206
9.625	2.09097
9.63	2.08034
9.635	2.07032
9.64	2.06076
9.645	2.05142
9.65	2.04212
9.655	2.03278
9.66	2.02344
9.665	2.01424
9.67	2.00532
9.675	1.9969
9.68	1.98921
9.685	1.9825
9.69	1.97688
9.695	1.97223
9.7	1.96823
9.705	1.96444
9.71	1.96038
9.715	1.95574
9.72	1.95048
9.725	1.94488
9.73	1.93925
9.735	1.93379
9.74	1.92864
9.745	1.92394
9.75	1.91979
9.755	1.91589
9.76	1.91153
9.765	1.90599
9.77	1.89909
9.775	1.89118
9.78	1.88262
9.785	1.87343
9.79	1.86342
9.795	1.85253
9.8	1.84103
9.805	1.82939
9.81	1.81806
9.815	1.80726
9.82	1.797
9.825	1.78727
9.83	1.7781
9.835	1.76951
9.84	1.76139
9.845	1.75348
9.85	1.74556
9.855	1.73749
9.86	1.72924
9.865	1.72084
9.87	1.71247
9.875	1.70436
9.88	1.69665
9.885	1.68925
9.89	1.68192
9.895	1.67447
9.9	1.6669
9.905	1.65928
9.91	1.65157
9.915	1.64364
9.92	1.63542
9.925	1.62708
9.93	1.6189
9.935	1.61114
9.94	1.60399
9.945	1.59761
9.95	1.59215
9.955	1.5877
9.96	1.58413
9.965	1.58104
9.97	1.57791
9.975	1.57441
9.98	1.57066
9.985	1.56704
9.99	1.56394
9.995	1.56141
10	1.55921
10.005	1.55715
10.01	1.55533
10.015	1.55393
10.02	1.55295
10.025	1.55214
10.03	1.55135
10.035	1.55071
10.04	1.55025
10.045	1.54956
10.05	1.54776
10.055	1.54414
10.06	1.53873
10.065	1.5322
10.07	1.52532
10.075	1.51855
10.08	1.51204
10.085	1.50586
10.09	1.50008
10.095	1.49468
10.1	1.48957
10.105	1.48462
10.11	1.47973
10.115	1.47476
10.12	1.46949
10.125	1.46378
10.13	1.45758
10.135	1.45111
10.14	1.44469
10.145	1.43862
10.15	1.43297
10.155	1.42762
10.16	1.42241
10.165	1.41735
10.17	1.41254
10.175	1.40797
10.18	1.40348
10.185	1.39888
10.19	1.39415
10.195	1.38937
10.2	1.38461
10.205	1.37992
10.21	1.37546
10.215	1.37147
10.22	1.36798
10.225	1.36474
10.23	1.36144
10.235	1.35799
10.24	1.35446
10.245	1.35087
10.25	1.34717
10.255	1.34337
10.26	1.33954
10.265	1.33581
10.27	1.33219
10.275	1.32852
10.28	1.32464
10.285	1.32048
10.29	1.31617
10.295	1.31187
10.3	1.30757
10.305	1.30315
10.31	1.29858
10.315	1.29394
10.32	1.28934
10.325	1.28485
10.33	1.28053
10.335	1.27646
10.34	1.27264
10.345	1.26892
10.35	1.26516
10.355	1.26139
10.36	1.25775
10.365	1.25437
10.37	1.25136
10.375	1.24888
10.38	1.24721
10.385	1.24655
10.39	1.24679
10.395	1.24742
10.4	1.24782
10.405	1.24774
10.41	1.24729
10.415	1.24676
10.42	1.2463
10.425	1.24604
10.43	1.24616
10.435	1.24685
10.44	1.24807
10.445	1.24954
10.45	1.25092
10.455	1.25206
10.46	1.25291
10.465	1.25343
10.47	1.25349
10.475	1.25305
10.48	1.25212
10.485	1.25079
10.49	1.24914
10.495	1.24725
10.5	1.24509
10.505	1.2426
10.51	1.23969
10.515	1.23633
10.52	1.23254
10.525	1.22847
10.53	1.22431
10.535	1.2203
10.54	1.21658
10.545	1.21318
10.55	1.21
10.555	1.20682
10.56	1.20342
10.565	1.19975
10.57	1.19598
10.575	1.19241
10.58	1.18929
10.585	1.18676
10.59	1.18479
10.595	1.18332
10.6	1.18239
10.605	1.18198
10.61	1.18185
10.615	1.18154
10.62	1.1806
10.625	1.17886
10.63	1.1765
10.635	1.17393
10.64	1.17146
10.645	1.16916
10.65	1.16688
10.655	1.16446
10.66	1.16181
10.665	1.15898
10.67	1.15609
10.675	1.15323
10.68	1.15043
10.685	1.1476
10.69	1.14457
10.695	1.14122
10.7	1.13761
10.705	1.13398
10.71	1.13062
10.715	1.12769
10.72	1.12519
10.725	1.12291
10.73	1.12063
10.735	1.11823
10.74	1.11568
10.745	1.11311
10.75	1.11069
10.755	1.10856
10.76	1.10675
10.765	1.1051
10.77	1.10341
10.775	1.10158
10.78	1.09963
10.785	1.09755
10.79	1.09529
10.795	1.09285
10.8	1.09036
10.805	1.08795
10.81	1.08568
10.815	1.0835
10.82	1.08141
10.825	1.07942
10.83	1.07756
10.835	1.07576
10.84	1.07387
10.845	1.07169
10.85	1.06907
10.855	1.06599
10.86	1.06258
10.865	1.059
10.87	1.0553
10.875	1.05146
10.88	1.04747
10.885	1.04342
10.89	1.03944
10.895	1.03568
10.9	1.03226
10.905	1.0292
10.91	1.0264
10.915	1.02373
10.92	1.02115
10.925	1.01879
10.93	1.01681
10.935	1.01519
10.94	1.01373
10.945	1.01214
10.95	1.01026
10.955	1.0081
10.96	1.0058
10.965	1.00346
10.97	1.00119
10.975	0.999088
10.98	0.997192
10.985	0.995489
10.99	0.993957
10.995	0.992586
11	0.991319
11.005	0.990046
11.01	0.988735
11.015	0.987522
11.02	0.986565
11.025	0.985854
11.03	0.985222
11.035	0.984519
11.04	0.983681
11.045	0.98263
11.05	0.981216
11.055	0.979312
11.06	0.97695
11.065	0.974329
11.07	0.971679
11.075	0.969118
11.08	0.966638
11.085	0.964223
11.09	0.961976
11.095	0.960096
11.1	0.958718
11.105	0.957861
11.11	0.957523
11.115	0.957682
11.12	0.958099
11.125	0.95831
11.13	0.957966
11.135	0.957149
11.14	0.956226
11.145	0.955488
11.15	0.955011
11.155	0.954817
11.16	0.95498
11.165	0.955516
11.17	0.956249
11.175	0.956887
11.18	0.957278
11.185	0.957492
11.19	0.957613
11.195	0.957516
11.2	0.956937
11.205	0.955737
11.21	0.954049
11.215	0.952137
11.22	0.950158
11.225	0.948073
11.23	0.945785
11.235	0.943284
11.24	0.940667
11.245	0.938054
11.25	0.935506
11.255	0.933033
11.26	0.930684
11.265	0.928581
11.27	0.926838
11.275	0.925443
11.28	0.92425
11.285	0.923095
11.29	0.921896
11.295	0.920655
11.3	0.91941
11.305	0.918209
11.31	0.917106
11.315	0.916179
11.32	0.915534
11.325	0.915269
11.33	0.915398
11.335	0.915795
11.34	0.916241
11.345	0.916522
11.35	0.916519
11.355	0.916241
11.36	0.915829
11.365	0.915505
11.37	0.915463
11.375	0.915749
11.38	0.91626
11.385	0.916851
11.39	0.917459
11.395	0.918115
11.4	0.918844
11.405	0.91955
11.41	0.920019
11.415	0.92004
11.42	0.919539
11.425	0.918594
11.43	0.91736
11.435	0.915968
11.44	0.914494
11.445	0.912944
11.45	0.911256
11.455	0.909352
11.46	0.90725
11.465	0.905099
11.47	0.903055
11.475	0.901141
11.48	0.899264
11.485	0.89736
11.49	0.895461
11.495	0.893608
11.5	0.891777
11.505	0.889914
11.51	0.88799
11.515	0.886
11.52	0.883986
11.525	0.882071
11.53	0.880374
11.535	0.878881
11.54	0.877431
11.545	0.875851
11.55	0.874087
11.555	0.87223
11.56	0.870475
11.565	0.869023
11.57	0.867954
11.575	0.867162
11.58	0.866447
11.585	0.865664
11.59	0.864769
11.595	0.863742
11.6	0.862545
11.605	0.86118
11.61	0.859761
11.615	0.858477
11.62	0.857467
11.625	0.856726
11.63	0.856137
11.635	0.855586
11.64	0.855065
11.645	0.85463
11.65	0.854277
11.655	0.853855
11.66	0.853161
11.665	0.852118
11.67	0.850863
11.675	0.849628
11.68	0.84853
11.685	0.847537
11.69	0.846611
11.695	0.845833
11.7	0.845302
11.705	0.844947
11.71	0.844502
11.715	0.843715
11.72	0.842538
11.725	0.841127
11.73	0.839705
11.735	0.838436
11.74	0.837374
11.745	0.836468
11.75	0.835613
11.755	0.834706
11.76	0.83369
11.765	0.832529
11.77	0.831174
11.775	0.829571
11.78	0.827753
11.785	0.825874
11.79	0.824116
11.795	0.822548
11.8	0.82112
11.805	0.819767
11.81	0.818484
11.815	0.817294
11.82	0.816169
11.825	0.815022
11.83	0.813767
11.835	0.812402
11.84	0.811002
11.845	0.809642
11.85	0.808323
11.855	0.806983
11.86	0.805588
11.865	0.804178
11.87	0.80283
11.875	0.801573
11.88	0.800354
11.885	0.799075
11.89	0.797661
11.895	0.796111
11.9	0.7945
11.905	0.792933
11.91	0.791471
11.915	0.790111
11.92	0.788826
11.925	0.787602
11.93	0.786427
11.935	0.785285
11.94	0.784155
11.945	0.782991
11.95	0.781725
11.955	0.780312
11.96	0.778768
11.965	0.777133
11.97	0.775406
11.975	0.773541
11.98	0.771483
11.985	0.769196
11.99	0.766686
11.995	0.763993
12	0.761151
12.005	0.758161
12.01	0.75502
12.015	0.75176
12.02	0.748469
12.025	0.745264
12.03	0.742234
12.035	0.739382
12.04	0.736633
12.045	0.733918
12.05	0.731219
12.055	0.72854
12.06	0.725842
12.065	0.723059
12.07	0.720131
12.075	0.717044
12.08	0.713839
12.085	0.710592
12.09	0.707398
12.095	0.704364
12.1	0.701598
12.105	0.69916
12.11	0.697008
12.115	0.695019
12.12	0.693063
12.125	0.691068
12.13	0.689031
12.135	0.687012
12.14	0.685092
12.145	0.683313
12.15	0.681646
12.155	0.68005
12.16	0.678529
12.165	0.677094
12.17	0.675679
12.175	0.674165
12.18	0.672516
12.185	0.670867
12.19	0.669439
12.195	0.66836
12.2	0.667573
12.205	0.666914
12.21	0.666265
12.215	0.665613
12.22	0.665022
12.225	0.664593
12.23	0.664446
12.235	0.664648
12.24	0.665134
12.245	0.665701
12.25	0.666104
12.255	0.666163
12.26	0.665839
12.265	0.665238
12.27	0.664514
12.275	0.663715
12.28	0.66273
12.285	0.661397
12.29	0.659647
12.295	0.657538
12.3	0.655216
12.305	0.652864
12.31	0.650652
12.315	0.648674
12.32	0.646935
12.325	0.645397
12.33	0.644049
12.335	0.642894
12.34	0.641849
12.345	0.640707
12.35	0.63924
12.355	0.637378
12.36	0.635267
12.365	0.633162
12.37	0.631256
12.375	0.629598
12.38	0.628144
12.385	0.626828
12.39	0.625577
12.395	0.624305
12.4	0.622951
12.405	0.621529
12.41	0.620094
12.415	0.618659
12.42	0.617181
12.425	0.615628
12.43	0.614034
12.435	0.612447
12.44	0.610866
12.445	0.609249
12.45	0.607575
12.455	0.605867
12.46	0.604168
12.465	0.602505
12.47	0.600864
12.475	0.599193
12.48	0.597443
12.485	0.595604
12.49	0.593722
12.495	0.591875
12.5	0.590117
12.505	0.588436
12.51	0.586751
12.515	0.584985
12.52	0.583133
12.525	0.581266
12.53	0.579468
12.535	0.577781
12.54	0.576188
12.545	0.57464
12.55	0.573069
12.555	0.571418
12.56	0.569669
12.565	0.567847
12.57	0.565957
12.575	0.56395
12.58	0.56176
12.585	0.559389
12.59	0.55694
12.595	0.554554
12.6	0.552295
12.605	0.550139
12.61	0.548039
12.615	0.546
12.62	0.544056
12.625	0.542216
12.63	0.540444
12.635	0.538681
12.64	0.536861
12.645	0.534944
12.65	0.532958
12.655	0.530999
12.66	0.52914
12.665	0.52735
12.67	0.525512
12.675	0.523559
12.68	0.521555
12.685	0.519663
12.69	0.518013
12.695	0.516614
12.7	0.515342
12.705	0.514043
12.71	0.512625
12.715	0.511076
12.72	0.509418
12.725	0.507686
12.73	0.505947
12.735	0.504303
12.74	0.502841
12.745	0.501562
12.75	0.500381
12.755	0.499196
12.76	0.497964
12.765	0.496708
12.77	0.495462
12.775	0.494221
12.78	0.492963
12.785	0.49171
12.79	0.490534
12.795	0.489466
12.8	0.488438
12.805	0.487354
12.81	0.486199
12.815	0.485063
12.82	0.484038
12.825	0.483128
12.83	0.482248
12.835	0.481331
12.84	0.480394
12.845	0.479486
12.85	0.478607
12.855	0.477702
12.86	0.47673
12.865	0.475679
12.87	0.474558
12.875	0.473408
12.88	0.472307
12.885	0.471327
12.89	0.470489
12.895	0.46978
12.9	0.469176
12.905	0.468623
12.91	0.468019
12.915	0.467272
12.92	0.466383
12.925	0.465461
12.93	0.464621
12.935	0.463891
12.94	0.463207
12.945	0.462486
12.95	0.461696
12.955	0.460888
12.96	0.460151
12.965	0.459533
12.97	0.459027
12.975	0.458605
12.98	0.458247
12.985	0.457923
12.99	0.457562
12.995	0.457091
13	0.456471
13.005	0.455702
13.01	0.454801
13.015	0.453795
13.02	0.452721
13.025	0.451628
13.03	0.450571
13.035	0.449584
13.04	0.448661
13.045	0.447775
13.05	0.446917
13.055	0.446086
13.06	0.445272
13.065	0.444439
13.07	0.443559
13.075	0.442628
13.08	0.441666
13.085	0.440704
13.09	0.439789
13.095	0.438969
13.1	0.43829
13.105	0.437762
13.11	0.43732
13.115	0.436825
13.12	0.436142
13.125	0.435261
13.13	0.434321
13.135	0.433507
13.14	0.432903
13.145	0.432435
13.15	0.431955
13.155	0.431375
13.16	0.430721
13.165	0.430087
13.17	0.429537
13.175	0.429077
13.18	0.428669
13.185	0.428259
13.19	0.427812
13.195	0.427316
13.2	0.426774
13.205	0.426186
13.21	0.425526
13.215	0.424764
13.22	0.423878
13.225	0.422873
13.23	0.421771
13.235	0.420591
13.24	0.419352
13.245	0.418088
13.25	0.416856
13.255	0.415696
13.26	0.414611
13.265	0.413584
13.27	0.412612
13.275	0.411692
13.28	0.41081
13.285	0.40994
13.29	0.409056
13.295	0.408131
13.3	0.407157
13.305	0.406156
13.31	0.405189
13.315	0.404303
13.32	0.403495
13.325	0.402687
13.33	0.401763
13.335	0.40065
13.34	0.399379
13.345	0.398072
13.35	0.396848
13.355	0.395756
13.36	0.394783
13.365	0.393892
13.37	0.393046
13.375	0.39221
13.38	0.391347
13.385	0.390441
13.39	0.389511
13.395	0.388613
13.4	0.387788
13.405	0.387017
13.41	0.386236
13.415	0.385401
13.42	0.38451
13.425	0.38359
13.43	0.382658
13.435	0.381727
13.44	0.380802
13.445	0.379874
13.45	0.378916
13.455	0.377916
13.46	0.376879
13.465	0.375816
13.47	0.374734
13.475	0.373659
13.48	0.372639
13.485	0.371703
13.49	0.370819
13.495	0.369922
13.5	0.368978
13.505	0.368006
13.51	0.36704
13.515	0.366085
13.52	0.365102
13.525	0.364018
13.53	0.362772
13.535	0.361375
13.54	0.359914
13.545	0.35847
13.55	0.35704
13.555	0.355541
13.56	0.353916
13.565	0.352217
13.57	0.350573
13.575	0.349077
13.58	0.347712
13.585	0.3464
13.59	0.345093
13.595	0.343789
13.6	0.342496
13.605	0.3412
13.61	0.339891
13.615	0.338573
13.62	0.337252
13.625	0.335931
13.63	0.334625
13.635	0.333373
13.64	0.332209
13.645	0.331125
13.65	0.330087
13.655	0.329062
13.66	0.328029
13.665	0.326958
13.67	0.325818
13.675	0.324606
13.68	0.32336
13.685	0.322129
13.69	0.320947
13.695	0.319805
13.7	0.31868
13.705	0.317568
13.71	0.316515
13.715	0.315588
13.72	0.314816
13.725	0.314168
13.73	0.313569
13.735	0.312944
13.74	0.312248
13.745	0.311468
13.75	0.31062
13.755	0.30975
13.76	0.308925
13.765	0.308211
13.77	0.307639
13.775	0.307178
13.78	0.306767
13.785	0.306349
13.79	0.305906
13.795	0.305453
13.8	0.304997
13.805	0.304505
13.81	0.303929
13.815	0.303254
13.82	0.302528
13.825	0.301836
13.83	0.301263
13.835	0.300856
13.84	0.300597
13.845	0.300411
13.85	0.300215
13.855	0.299991
13.86	0.299783
13.865	0.29965
13.87	0.299628
13.875	0.299729
13.88	0.29997
13.885	0.300364
13.89	0.300909
13.895	0.301569
13.9	0.302264
13.905	0.302863
13.91	0.303226
13.915	0.303281
13.92	0.303063
13.925	0.30269
13.93	0.302269
13.935	0.301855
13.94	0.301475
13.945	0.301168
13.95	0.300974
13.955	0.300909
13.96	0.300976
13.965	0.301175
13.97	0.301481
13.975	0.301817
13.98	0.302069
13.985	0.302125
13.99	0.30192
13.995	0.301462
14	0.300852
14.005	0.300242
14.01	0.299769
14.015	0.299502
14.02	0.299438
14.025	0.2995
14.03	0.299577
14.035	0.299586
14.04	0.299504
14.045	0.299322
14.05	0.298984
14.055	0.298393
14.06	0.297506
14.065	0.296403
14.07	0.295235
14.075	0.294122
14.08	0.293099
14.085	0.292153
14.09	0.291283
14.095	0.290502
14.1	0.289805
14.105	0.289156
14.11	0.288524
14.115	0.287913
14.12	0.287351
14.125	0.286851
14.13	0.286372
14.135	0.285852
14.14	0.285273
14.145	0.28469
14.15	0.284187
14.155	0.283819
14.16	0.283576
14.165	0.283377
14.17	0.28312
14.175	0.282746
14.18	0.282282
14.185	0.2818
14.19	0.281362
14.195	0.280993
14.2	0.280698
14.205	0.280468
14.21	0.280287
14.215	0.280137
14.22	0.280001
14.225	0.279861
14.23	0.279694
14.235	0.27949
14.24	0.279272
14.245	0.279074
14.25	0.278902
14.255	0.278708
14.26	0.278428
14.265	0.278038
14.27	0.277567
14.275	0.277053
14.28	0.276495
14.285	0.275873
14.29	0.275197
14.295	0.274521
14.3	0.273912
14.305	0.273401
14.31	0.272972
14.315	0.272579
14.32	0.272164
14.325	0.271683
14.33	0.271121
14.335	0.270495
14.34	0.269836
14.345	0.269181
14.35	0.268579
14.355	0.268081
14.36	0.267709
14.365	0.267424
14.37	0.267152
14.375	0.266817
14.38	0.266372
14.385	0.265812
14.39	0.265186
14.395	0.26458
14.4	0.264069
14.405	0.26368
14.41	0.263378
14.415	0.26309
14.42	0.26275
14.425	0.262328
14.43	0.261843
14.435	0.261331
14.44	0.260814
14.445	0.2603
14.45	0.259805
14.455	0.259368
14.46	0.259018
14.465	0.258738
14.47	0.258471
14.475	0.25817
14.48	0.257831
14.485	0.257489
14.49	0.257175
14.495	0.256897
14.5	0.256621
14.505	0.256301
14.51	0.255916
14.515	0.255491
14.52	0.255064
14.525	0.254651
14.53	0.254247
14.535	0.253861
14.54	0.253523
14.545	0.253239
14.55	0.252967
14.555	0.252659
14.56	0.25232
14.565	0.251995
14.57	0.251709
14.575	0.251439
14.58	0.251143
14.585	0.250808
14.59	0.250464
14.595	0.250156
14.6	0.249918
14.605	0.249748
14.61	0.2496
14.615	0.24941
14.62	0.249127
14.625	0.248741
14.63	0.248278
14.635	0.247786
14.64	0.247324
14.645	0.246942
14.65	0.246667
14.655	0.246496
14.66	0.246406
14.665	0.246358
14.67	0.246308
14.675	0.246233
14.68	0.246142
14.685	0.246059
14.69	0.245997
14.695	0.245959
14.7	0.245933
14.705	0.245879
14.71	0.245727
14.715	0.245426
14.72	0.245002
14.725	0.244546
14.73	0.244138
14.735	0.243785
14.74	0.243446
14.745	0.243081
14.75	0.24268
14.755	0.242254
14.76	0.24183
14.765	0.241446
14.77	0.241125
14.775	0.240851
14.78	0.240584
14.785	0.2403
14.79	0.240009
14.795	0.239741
14.8	0.239518
14.805	0.239347
14.81	0.239211
14.815	0.239074
14.82	0.238895
14.825	0.238647
14.83	0.238342
14.835	0.238017
14.84	0.237706
14.845	0.237414
14.85	0.237123
14.855	0.236806
14.86	0.236458
14.865	0.236091
14.87	0.235726
14.875	0.235376
14.88	0.235045
14.885	0.234746
14.89	0.234496
14.895	0.234292
14.9	0.234095
14.905	0.233842
14.91	0.233493
14.915	0.233061
14.92	0.232585
14.925	0.232103
14.93	0.231641
14.935	0.231219
14.94	0.230845
14.945	0.230507
14.95	0.230172
14.955	0.229817
14.96	0.229443
14.965	0.229069
14.97	0.22871
14.975	0.228367
14.98	0.228018
14.985	0.22763
14.99	0.227187
14.995	0.226706
15	0.226232
15.005	0.225808
15.01	0.225449
15.015	0.225139
15.02	0.224846
15.025	0.224553
15.03	0.224271
15.035	0.224032
15.04	0.223847
15.045	0.223684
15.05	0.223494
15.055	0.223251
15.06	0.22298
15.065	0.222727
15.07	0.222518
15.075	0.222334
15.08	0.222125
15.085	0.221855
15.09	0.221524
15.095	0.221149
15.1	0.220752
15.105	0.220341
15.11	0.219909
15.115	0.219433
15.12	0.218899
15.125	0.218318
15.13	0.217721
15.135	0.217131
15.14	0.216564
15.145	0.216032
15.15	0.215536
15.155	0.215056
15.16	0.214577
15.165	0.214107
15.17	0.213663
15.175	0.213242
15.18	0.212824
15.185	0.212391
15.19	0.211944
15.195	0.211502
15.2	0.211085
15.205	0.210691
15.21	0.210306
15.215	0.209927
15.22	0.209564
15.225	0.20922
15.23	0.208893
15.235	0.208588
15.24	0.208315
15.245	0.208067
15.25	0.207811
15.255	0.207512
15.26	0.20715
15.265	0.206716
15.27	0.206207
15.275	0.205644
15.28	0.205078
15.285	0.204568
15.29	0.204145
15.295	0.203807
15.3	0.203525
15.305	0.203255
15.31	0.202959
15.315	0.202621
15.32	0.202263
15.325	0.201926
15.33	0.201638
15.335	0.20139
15.34	0.201147
15.345	0.200872
15.35	0.200551
15.355	0.200222
15.36	0.199953
15.365	0.199793
15.37	0.199737
15.375	0.199737
15.38	0.199731
15.385	0.199667
15.39	0.199519
15.395	0.199307
15.4	0.19909
15.405	0.19892
15.41	0.198802
15.415	0.198702
15.42	0.198594
15.425	0.198485
15.43	0.198395
15.435	0.198342
15.44	0.198336
15.445	0.198368
15.45	0.198401
15.455	0.198386
15.46	0.198305
15.465	0.198182
15.47	0.198064
15.475	0.197989
15.48	0.197962
15.485	0.197965
15.49	0.197962
15.495	0.197922
15.5	0.19784
15.505	0.197735
15.51	0.197639
15.515	0.197582
15.52	0.197576
15.525	0.197602
15.53	0.197614
15.535	0.197572
15.54	0.19748
15.545	0.197376
15.55	0.197294
15.555	0.197247
15.56	0.197228
15.565	0.19724
15.57	0.197292
15.575	0.197379
15.58	0.197484
15.585	0.197597
15.59	0.197719
15.595	0.197852
15.6	0.197984
15.605	0.198101
15.61	0.198189
15.615	0.198252
15.62	0.198313
15.625	0.198407
15.63	0.198566
15.635	0.198791
15.64	0.199053
15.645	0.19931
15.65	0.199529
15.655	0.1997
15.66	0.199825
15.665	0.199905
15.67	0.199945
15.675	0.199956
15.68	0.199961
15.685	0.199988
15.69	0.200055
15.695	0.200154
15.7	0.200253
15.705	0.200312
15.71	0.200314
15.715	0.200272
15.72	0.200225
15.725	0.200207
15.73	0.200226
15.735	0.200261
15.74	0.200293
15.745	0.200343
15.75	0.200456
15.755	0.20066
15.76	0.200924
15.765	0.201169
15.77	0.201329
15.775	0.201394
15.78	0.201408
15.785	0.201428
15.79	0.201491
15.795	0.201619
15.8	0.201829
15.805	0.202109
15.81	0.202416
15.815	0.202698
15.82	0.20293
15.825	0.203114
15.83	0.203266
15.835	0.203404
15.84	0.203561
15.845	0.203766
15.85	0.204018
15.855	0.204267
15.86	0.204459
15.865	0.204578
15.87	0.204655
15.875	0.204728
15.88	0.204815
15.885	0.20491
15.89	0.204997
15.895	0.205072
15.9	0.205139
15.905	0.205196
15.91	0.20522
15.915	0.205181
15.92	0.205076
15.925	0.204935
15.93	0.204802
15.935	0.204701
15.94	0.204634
15.945	0.20459
15.95	0.20456
15.955	0.204524
15.96	0.204454
15.965	0.204323
15.97	0.204122
15.975	0.203872
15.98	0.203621
15.985	0.203424
15.99	0.203308
15.995	0.203258
16	0.203224
16.005	0.203157
16.01	0.203025
16.015	0.202829
16.02	0.202588
16.025	0.202335
16.03	0.202088
16.035	0.201859
16.04	0.201657
16.045	0.201485
16.05	0.201342
16.055	0.201226
16.06	0.201132
16.065	0.201051
16.07	0.200972
16.075	0.200889
16.08	0.200797
16.085	0.200683
16.09	0.200536
16.095	0.200352
16.1	0.200148
16.105	0.19995
16.11	0.199786
16.115	0.199667
16.12	0.199583
16.125	0.199504
16.13	0.1994
16.135	0.199272
16.14	0.199146
16.145	0.199045
16.15	0.198962
16.155	0.198863
16.16	0.19873
16.165	0.198583
16.17	0.198462
16.175	0.198383
16.18	0.198317
16.185	0.19822
16.19	0.198067
16.195	0.197869
16.2	0.197669
16.205	0.197506
16.21	0.197395
16.215	0.197319
16.22	0.197246
16.225	0.197149
16.23	0.197014
16.235	0.196841
16.24	0.196643
16.245	0.196446
16.25	0.196277
16.255	0.196152
16.26	0.196069
16.265	0.196006
16.27	0.195929
16.275	0.195812
16.28	0.195653
16.285	0.195473
16.29	0.195298
16.295	0.19514
16.3	0.194991
16.305	0.194823
16.31	0.1946
16.315	0.194302
16.32	0.193947
16.325	0.193584
16.33	0.193272
16.335	0.193061
16.34	0.192971
16.345	0.192975
16.35	0.193003
16.355	0.192977
16.36	0.192861
16.365	0.192677
16.37	0.192469
16.375	0.192268
16.38	0.192071
16.385	0.191857
16.39	0.191604
16.395	0.191315
16.4	0.191015
16.405	0.190739
16.41	0.190514
16.415	0.19034
16.42	0.1902
16.425	0.190075
16.43	0.189965
16.435	0.189881
16.44	0.18983
16.445	0.189795
16.45	0.189752
16.455	0.189689
16.46	0.189612
16.465	0.189536
16.47	0.189464
16.475	0.189397
16.48	0.189335
16.485	0.189276
16.49	0.189216
16.495	0.189153
16.5	0.189094
16.505	0.189061
16.51	0.189083
16.515	0.18917
16.52	0.189292
16.525	0.189398
16.53	0.189458
16.535	0.189477
16.54	0.189483
16.545	0.189497
16.55	0.189526
16.555	0.189565
16.56	0.189599
16.565	0.189598
16.57	0.189526
16.575	0.189364
16.58	0.189134
16.585	0.188879
16.59	0.188633
16.595	0.188406
16.6	0.188199
16.605	0.188025
16.61	0.187906
16.615	0.187845
16.62	0.187831
16.625	0.187837
16.63	0.187843
16.635	0.18783
16.64	0.18779
16.645	0.187715
16.65	0.187603
16.655	0.187456
16.66	0.18729
16.665	0.187137
16.67	0.187029
16.675	0.186971
16.68	0.186932
16.685	0.186871
16.69	0.186777
16.695	0.186673
16.7	0.186599
16.705	0.186574
16.71	0.186585
16.715	0.186604
16.72	0.186619
16.725	0.18664
16.73	0.186685
16.735	0.186755
16.74	0.186824
16.745	0.186858
16.75	0.186844
16.755	0.186781
16.76	0.186663
16.765	0.186492
16.77	0.186289
16.775	0.186094
16.78	0.18593
16.785	0.185789
16.79	0.185653
16.795	0.185511
16.8	0.185361
16.805	0.185192
16.81	0.184985
16.815	0.18473
16.82	0.184422
16.825	0.184041
16.83	0.183566
16.835	0.183007
16.84	0.182429
16.845	0.181921
16.85	0.181539
16.855	0.18127
16.86	0.181049
16.865	0.180817
16.87	0.180566
16.875	0.180339
16.88	0.180193
16.885	0.180158
16.89	0.180232
16.895	0.180392
16.9	0.180603
16.905	0.180816
16.91	0.180987
16.915	0.181104
16.92	0.181195
16.925	0.181292
16.93	0.181405
16.935	0.18151
16.94	0.181581
16.945	0.181612
16.95	0.181625
16.955	0.181646
16.96	0.181684
16.965	0.181729
16.97	0.181762
16.975	0.181769
16.98	0.181747
16.985	0.181697
16.99	0.181628
16.995	0.181548
17	0.181447
17.005	0.181296
17.01	0.181061
17.015	0.180716
17.02	0.180255
17.025	0.179693
17.03	0.179067
17.035	0.17843
17.04	0.177827
17.045	0.17728
17.05	0.176771
17.055	0.176259
17.06	0.175708
17.065	0.175113
17.07	0.174499
17.075	0.173897
17.08	0.173332
17.085	0.172814
17.09	0.172338
17.095	0.171873
17.1	0.171369
17.105	0.170775
17.11	0.170075
17.115	0.169294
17.12	0.168481
17.125	0.167666
17.13	0.166845
17.135	0.166005
17.14	0.165144
17.145	0.164286
17.15	0.163455
17.155	0.162662
17.16	0.161905
17.165	0.161171
17.17	0.160449
17.175	0.159733
17.18	0.159028
17.185	0.158346
17.19	0.157687
17.195	0.157038
17.2	0.156388
17.205	0.155735
17.21	0.155077
17.215	0.154408
17.22	0.153721
17.225	0.153027
17.23	0.15235
17.235	0.151713
17.24	0.151128
17.245	0.150592
17.25	0.150101
17.255	0.149653
17.26	0.149244
17.265	0.148866
17.27	0.148508
17.275	0.148165
17.28	0.147837
17.285	0.147524
17.29	0.147196
17.295	0.146802
17.3	0.146302
17.305	0.14571
17.31	0.145091
17.315	0.144519
17.32	0.144023
17.325	0.143594
17.33	0.143207
17.335	0.142847
17.34	0.142507
17.345	0.142172
17.35	0.141819
17.355	0.141431
17.36	0.141004
17.365	0.140553
17.37	0.140109
17.375	0.139705
17.38	0.13936
17.385	0.139063
17.39	0.138772
17.395	0.138438
17.4	0.138034
17.405	0.137568
17.41	0.137072
17.415	0.136571
17.42	0.136068
17.425	0.135555
17.43	0.135029
17.435	0.134508
17.44	0.134004
17.445	0.133514
17.45	0.133023
17.455	0.132524
17.46	0.132028
17.465	0.131551
17.47	0.131094
17.475	0.130634
17.48	0.130147
17.485	0.129626
17.49	0.129082
17.495	0.128535
17.5	0.128007
17.505	0.127524
17.51	0.127114
17.515	0.126787
17.52	0.126525
17.525	0.126289
17.53	0.126046
17.535	0.125793
17.54	0.125546
17.545	0.125317
17.55	0.125105
17.555	0.124899
17.56	0.124685
17.565	0.124449
17.57	0.124179
17.575	0.123877
17.58	0.123551
17.585	0.123203
17.59	0.122825
17.595	0.122414
17.6	0.121986
17.605	0.12156
17.61	0.121143
17.615	0.120722
17.62	0.120277
17.625	0.119798
17.63	0.119284
17.635	0.118739
17.64	0.118173
17.645	0.117606
17.65	0.117066
17.655	0.116583
17.66	0.116172
17.665	0.115833
17.67	0.115546
17.675	0.115275
17.68	0.114978
17.685	0.114628
17.69	0.114216
17.695	0.11376
17.7	0.113296
17.705	0.112868
17.71	0.112507
17.715	0.11222
17.72	0.111998
17.725	0.111825
17.73	0.111681
17.735	0.111546
17.74	0.111404
17.745	0.111253
17.75	0.111103
17.755	0.11097
17.76	0.110856
17.765	0.11074
17.77	0.11058
17.775	0.11034
17.78	0.110018
17.785	0.109649
17.79	0.109287
17.795	0.108974
17.8	0.108728
17.805	0.10854
17.81	0.108386
17.815	0.108249
17.82	0.108128
17.825	0.10803
17.83	0.10796
17.835	0.107908
17.84	0.107864
17.845	0.107823
17.85	0.107783
17.855	0.107744
17.86	0.107711
17.865	0.107687
17.87	0.107667
17.875	0.107646
17.88	0.107632
17.885	0.107641
17.89	0.107678
17.895	0.107729
17.9	0.107771
17.905	0.107787
17.91	0.107786
17.915	0.107787
17.92	0.107808
17.925	0.107848
17.93	0.107888
17.935	0.107903
17.94	0.107881
17.945	0.107831
17.95	0.107779
17.955	0.107754
17.96	0.107777
17.965	0.107848
17.97	0.107956
17.975	0.108083
17.98	0.108214
17.985	0.108344
17.99	0.108483
17.995	0.108647
18	0.108851
18.005	0.109089
18.01	0.109332
18.015	0.109539
18.02	0.109677
18.025	0.109752
18.03	0.109812
18.035	0.109913
18.04	0.110074
18.045	0.110264
18.05	0.110425
18.055	0.110514
18.06	0.110531
18.065	0.110505
18.07	0.110463
18.075	0.110423
18.08	0.110392
18.085	0.110374
18.09	0.110375
18.095	0.110402
18.1	0.11045
18.105	0.110505
18.11	0.110552
18.115	0.110591
18.12	0.11063
18.125	0.110666
18.13	0.110692
18.135	0.110705
18.14	0.110711
18.145	0.11072
18.15	0.11074
18.155	0.110769
18.16	0.110805
18.165	0.110842
18.17	0.110881
18.175	0.110929
18.18	0.110995
18.185	0.11108
18.19	0.111181
18.195	0.111295
18.2	0.111419
18.205	0.111537
18.21	0.111617
18.215	0.111617
18.22	0.111502
18.225	0.111263
18.23	0.110926
18.235	0.110538
18.24	0.110147
18.245	0.109791
18.25	0.109492
18.255	0.109253
18.26	0.109071
18.265	0.108939
18.27	0.108847
18.275	0.108777
18.28	0.108716
18.285	0.108656
18.29	0.1086
18.295	0.108551
18.3	0.108521
18.305	0.10852
18.31	0.108562
18.315	0.108662
18.32	0.108829
18.325	0.109052
18.33	0.109308
18.335	0.109569
18.34	0.109815
18.345	0.110031
18.35	0.110204
18.355	0.110324
18.36	0.110388
18.365	0.110411
18.37	0.110415
18.375	0.110413
18.38	0.1104
18.385	0.110351
18.39	0.110254
18.395	0.110114
18.4	0.109951
18.405	0.109783
18.41	0.10962
18.415	0.109459
18.42	0.109295
18.425	0.109124
18.43	0.108948
18.435	0.108777
18.44	0.108625
18.445	0.108502
18.45	0.10841
18.455	0.108338
18.46	0.108271
18.465	0.108195
18.47	0.10811
18.475	0.108021
18.48	0.107941
18.485	0.107882
18.49	0.107856
18.495	0.107863
18.5	0.107892
18.505	0.107927
18.51	0.10795
18.515	0.107953
18.52	0.107934
18.525	0.107903
18.53	0.107872
18.535	0.107835
18.54	0.107755
18.545	0.107573
18.55	0.107219
18.555	0.106643
18.56	0.105854
18.565	0.10493
18.57	0.103997
18.575	0.103163
18.58	0.102479
18.585	0.101939
18.59	0.10151
18.595	0.101135
18.6	0.100747
18.605	0.100293
18.61	0.0997512
18.615	0.0991368
18.62	0.0984843
18.625	0.0978322
18.63	0.0972159
18.635	0.0966624
18.64	0.0961857
18.645	0.0957858
18.65	0.0954541
18.655	0.0951814
18.66	0.0949647
18.665	0.0948087
18.67	0.0947222
18.675	0.0947093
18.68	0.0947624
18.685	0.0948676
18.69	0.0950179
18.695	0.0952223
18.7	0.0955006
18.705	0.0958682
18.71	0.0963202
18.715	0.0968237
18.72	0.0973259
18.725	0.0977755
18.73	0.0981394
18.735	0.0983987
18.74	0.0985405
18.745	0.0985611
18.75	0.0984761
18.755	0.0983186
18.76	0.0981258
18.765	0.0979261
18.77	0.0977337
18.775	0.0975526
18.78	0.0973848
18.785	0.0972345
18.79	0.097106
18.795	0.0969983
18.8	0.0969029
18.805	0.096808
18.81	0.0967104
18.815	0.0966213
18.82	0.0965569
18.825	0.0965217
18.83	0.0965012
18.835	0.0964725
18.84	0.0964222
18.845	0.0963533
18.85	0.0962753
18.855	0.0961904
18.86	0.0960922
18.865	0.0959745
18.87	0.095838
18.875	0.09569
18.88	0.0955395
18.885	0.0953936
18.89	0.0952524
18.895	0.0951071
18.9	0.0949452
18.905	0.0947612
18.91	0.0945631
18.915	0.0943685
18.92	0.0941933
18.925	0.0940453
18.93	0.0939251
18.935	0.0938307
18.94	0.0937599
18.945	0.0937091
18.95	0.0936702
18.955	0.0936333
18.96	0.0935928
18.965	0.0935496
18.97	0.0935076
18.975	0.0934742
18.98	0.0934658
18.985	0.093504
18.99	0.0936013
18.995	0.0937534
19	0.0939493
19.005	0.0941847
19.01	0.0944592
19.015	0.0947608
19.02	0.0950551
19.025	0.0952941
19.03	0.0954417
19.035	0.0954942
19.04	0.0954796
19.045	0.0954365
19.05	0.0953944
19.055	0.0953702
19.06	0.0953741
19.065	0.0954114
19.07	0.0954761
19.075	0.0955429
19.08	0.0955737
19.085	0.0955367
19.09	0.0954209
19.095	0.0952306
19.1	0.0949754
19.105	0.0946723
19.11	0.0943523
19.115	0.0940528
19.12	0.093799
19.125	0.0935937
19.13	0.0934217
19.135	0.0932616
19.14	0.093098
19.145	0.0929241
19.15	0.0927341
19.155	0.0925149
19.16	0.0922498
19.165	0.0919354
19.17	0.0915919
19.175	0.0912535
19.18	0.0909454
19.185	0.0906717
19.19	0.0904205
19.195	0.0901807
19.2	0.0899507
19.205	0.0897348
19.21	0.0895353
19.215	0.0893498
19.22	0.089175
19.225	0.0890072
19.23	0.0888393
19.235	0.0886569
19.24	0.0884425
19.245	0.0881862
19.25	0.0878986
19.255	0.0876122
19.26	0.087365
19.265	0.0871761
19.27	0.0870337
19.275	0.0869059
19.28	0.0867666
19.285	0.0866128
19.29	0.0864571
19.295	0.0863094
19.3	0.0861681
19.305	0.0860251
19.31	0.085873
19.315	0.085708
19.32	0.0855332
19.325	0.0853617
19.33	0.0852139
19.335	0.0851061
19.34	0.085039
19.345	0.0849971
19.35	0.0849616
19.355	0.0849237
19.36	0.0848815
19.365	0.084828
19.37	0.0847519
19.375	0.0846497
19.38	0.0845339
19.385	0.0844231
19.39	0.0843233
19.395	0.0842163
19.4	0.0840731
19.405	0.0838817
19.41	0.0836581
19.415	0.0834292
19.42	0.0832112
19.425	0.0830066
19.43	0.0828158
19.435	0.0826436
19.44	0.0824935
19.445	0.0823611
19.45	0.0822349
19.455	0.0821034
19.46	0.0819644
19.465	0.0818261
19.47	0.0816982
19.475	0.0815816
19.48	0.0814694
19.485	0.0813556
19.49	0.0812394
19.495	0.0811207
19.5	0.0809961
19.505	0.080863
19.51	0.080728
19.515	0.0806051
19.52	0.0805012
19.525	0.080406
19.53	0.0803
19.535	0.0801743
19.54	0.0800387
19.545	0.0799113
19.55	0.079802
19.555	0.079706
19.56	0.0796107
19.565	0.0795064
19.57	0.0793959
19.575	0.0792923
19.58	0.0792097
19.585	0.0791518
19.59	0.079108
19.595	0.079061
19.6	0.0789975
19.605	0.078914
19.61	0.0788166
19.615	0.0787178
19.62	0.0786329
19.625	0.0785718
19.63	0.0785336
19.635	0.0785106
19.64	0.0784963
19.645	0.0784864
19.65	0.0784754
19.655	0.0784605
19.66	0.078447
19.665	0.078447
19.67	0.0784702
19.675	0.0785161
19.68	0.078572
19.685	0.0786192
19.69	0.0786461
19.695	0.0786553
19.7	0.0786549
19.705	0.0786425
19.71	0.0786023
19.715	0.0785177
19.72	0.0783842
19.725	0.0782127
19.73	0.0780242
19.735	0.0778395
19.74	0.0776715
19.745	0.0775216
19.75	0.0773832
19.755	0.0772482
19.76	0.0771139
19.765	0.0769843
19.77	0.0768675
19.775	0.076769
19.78	0.0766885
19.785	0.0766232
19.79	0.0765731
19.795	0.0765418
19.8	0.0765325
19.805	0.0765459
19.81	0.0765798
19.815	0.0766252
19.82	0.0766687
19.825	0.0767047
19.83	0.0767449
19.835	0.0768075
19.84	0.0768981
19.845	0.0770063
19.85	0.0771199
19.855	0.0772362
19.86	0.0773597
19.865	0.0774911
19.87	0.077624
19.875	0.0777508
19.88	0.0778723
19.885	0.0779969
19.89	0.0781336
19.895	0.0782911
19.9	0.0784891
19.905	0.078761
19.91	0.0791378
19.915	0.0796215
19.92	0.0801723
19.925	0.0807203
19.93	0.0811934
19.935	0.0815486
19.94	0.0817838
19.945	0.0819272
19.95	0.0820219
19.955	0.0821205
19.96	0.0822767
19.965	0.0825172
19.97	0.0828132
19.975	0.0830882
19.98	0.0832619
19.985	0.0832868
19.99	0.0831456
19.995	0.0828348
20	0.0823686
20.005	0.0817934
20.01	0.0811827
20.015	0.080606
20.02	0.0801005
20.025	0.0796674
20.03	0.0792888
20.035	0.0789482
20.04	0.0786394
20.045	0.0783637
20.05	0.0781226
20.055	0.077912
20.06	0.077723
20.065	0.0775495
20.07	0.077394
20.075	0.0772658
20.08	0.0771735
20.085	0.0771176
20.09	0.0770896
20.095	0.0770785
20.1	0.0770798
20.105	0.0771006
20.11	0.0771559
20.115	0.0772617
20.12	0.0774299
20.125	0.0776654
20.13	0.0779609
20.135	0.0782893
20.14	0.0786034
20.145	0.0788552
20.15	0.0790216
20.155	0.0791124
20.16	0.0791599
20.165	0.0792054
20.17	0.0792873
20.175	0.0794233
20.18	0.079597
20.185	0.0797685
20.19	0.0799027
20.195	0.0799896
20.2	0.0800426
20.205	0.0800842
20.21	0.0801353
20.215	0.080209
20.22	0.080307
20.225	0.0804169
20.23	0.0805112
20.235	0.0805524
20.24	0.0805042
20.245	0.0803468
20.25	0.0800868
20.255	0.0797551
20.26	0.0793896
20.265	0.0790184
20.27	0.0786544
20.275	0.0783026
20.28	0.0779657
20.285	0.0776463
20.29	0.0773448
20.295	0.0770591
20.3	0.0767873
20.305	0.0765296
20.31	0.0762861
20.315	0.0760536
20.32	0.0758279
20.325	0.0756078
20.33	0.0753904
20.335	0.075162
20.34	0.0749005
20.345	0.0745925
20.35	0.0742485
20.355	0.0738975
20.36	0.0735671
20.365	0.0732714
20.37	0.0730136
20.375	0.0727906
20.38	0.0725931
20.385	0.0724071
20.39	0.0722201
20.395	0.0720251
20.4	0.0718186
20.405	0.0715977
20.41	0.0713602
20.415	0.0711068
20.42	0.0708415
20.425	0.0705688
20.43	0.0702929
20.435	0.0700189
20.44	0.0697544
20.445	0.0695063
20.45	0.069277
20.455	0.0690647
20.46	0.0688669
20.465	0.0686849
20.47	0.0685223
20.475	0.0683815
20.48	0.0682585
20.485	0.0681445
20.49	0.0680293
20.495	0.067907
20.5	0.0677748
20.505	0.0676297
20.51	0.0674666
20.515	0.0672821
20.52	0.0670786
20.525	0.0668648
20.53	0.0666534
20.535	0.0664552
20.54	0.0662737
20.545	0.0661037
20.55	0.0659356
20.555	0.0657653
20.56	0.0656008
20.565	0.0654567
20.57	0.0653407
20.575	0.0652461
20.58	0.0651583
20.585	0.0650637
20.59	0.0649538
20.595	0.0648245
20.6	0.064678
20.605	0.064524
20.61	0.0643749
20.615	0.0642383
20.62	0.0641146
20.625	0.064002
20.63	0.0638977
20.635	0.0637962
20.64	0.0636904
20.645	0.0635763
20.65	0.0634561
20.655	0.0633369
20.66	0.0632279
20.665	0.0631365
20.67	0.0630652
20.675	0.0630141
20.68	0.0629838
20.685	0.062972
20.69	0.0629677
20.695	0.0629533
20.7	0.0629186
20.705	0.0628705
20.71	0.0628294
20.715	0.0628178
20.72	0.0628526
20.725	0.0629441
20.73	0.0630952
20.735	0.0633001
20.74	0.0635506
20.745	0.0638456
20.75	0.0641908
20.755	0.064585
20.76	0.06501
20.765	0.0654397
20.77	0.065858
20.775	0.0662625
20.78	0.0666538
20.785	0.0670289
20.79	0.0673839
20.795	0.0677194
20.8	0.0680423
20.805	0.0683621
20.81	0.0686855
20.815	0.0690121
20.82	0.0693364
20.825	0.0696549
20.83	0.0699713
20.835	0.0702978
20.84	0.0706529
20.845	0.0710536
20.85	0.0715018
20.855	0.0719747
20.86	0.0724291
20.865	0.0728215
20.87	0.0731295
20.875	0.0733563
20.88	0.0735175
20.885	0.0736273
20.89	0.0736991
20.895	0.0737499
20.9	0.0737966
20.905	0.0738433
20.91	0.0738781
20.915	0.0738839
20.92	0.0738518
20.925	0.0737864
20.93	0.0737016
20.935	0.0736129
20.94	0.0735293
20.945	0.0734485
20.95	0.0733592
20.955	0.0732512
20.96	0.0731268
20.965	0.0730004
20.97	0.0728872
20.975	0.0727923
20.98	0.0727101
20.985	0.0726325
20.99	0.0725544
20.995	0.0724757
21	0.0723981
21.005	0.0723225
21.01	0.0722475
21.015	0.0721683
21.02	0.072079
21.025	0.0719777
21.03	0.0718679
21.035	0.0717545
21.04	0.0716408
21.045	0.0715288
21.05	0.0714205
21.055	0.071316
21.06	0.071214
21.065	0.0711155
21.07	0.0710242
21.075	0.0709432
21.08	0.0708718
21.085	0.0708064
21.09	0.0707444
21.095	0.0706856
21.1	0.0706308
21.105	0.0705776
21.11	0.0705203
21.115	0.0704544
21.12	0.0703813
21.125	0.0703087
21.13	0.0702447
21.135	0.0701949
21.14	0.0701625
21.145	0.0701495
21.15	0.0701538
21.155	0.0701671
21.16	0.0701767
21.165	0.0701724
21.17	0.0701529
21.175	0.0701264
21.18	0.070105
21.185	0.0700971
21.19	0.0701039
21.195	0.0701196
21.2	0.0701344
21.205	0.0701367
21.21	0.0701195
21.215	0.0700841
21.22	0.0700365
21.225	0.0699813
21.23	0.06992
21.235	0.0698569
21.24	0.0698015
21.245	0.0697633
21.25	0.0697448
21.255	0.0697406
21.26	0.0697425
21.265	0.0697446
21.27	0.0697422
21.275	0.0697326
21.28	0.0697182
21.285	0.0697056
21.29	0.0697007
21.295	0.0697051
21.3	0.0697175
21.305	0.0697369
21.31	0.0697634
21.315	0.0697967
21.32	0.0698383
21.325	0.0698938
21.33	0.0699705
21.335	0.0700693
21.34	0.070181
21.345	0.0702945
21.35	0.0704058
21.355	0.070517
21.36	0.0706304
21.365	0.070745
21.37	0.0708595
21.375	0.0709755
21.38	0.0710999
21.385	0.0712409
21.39	0.0714016
21.395	0.0715762
21.4	0.0717547
21.405	0.0719311
21.41	0.0721065
21.415	0.0722824
21.42	0.0724556
21.425	0.0726217
21.43	0.0727822
21.435	0.0729465
21.44	0.0731236
21.445	0.0733148
21.45	0.073511
21.455	0.0736998
21.46	0.0738765
21.465	0.0740519
21.47	0.0742437
21.475	0.0744582
21.48	0.0746822
21.485	0.0748914
21.49	0.0750654
21.495	0.0751933
21.5	0.0752711
21.505	0.0753
21.51	0.075289
21.515	0.0752561
21.52	0.0752244
21.525	0.0752116
21.53	0.0752204
21.535	0.0752369
21.54	0.0752403
21.545	0.0752159
21.55	0.0751614
21.555	0.0750826
21.56	0.0749868
21.565	0.0748812
21.57	0.0747745
21.575	0.0746764
21.58	0.0745935
21.585	0.0745301
21.59	0.0744903
21.595	0.0744766
21.6	0.074482
21.605	0.0744888
21.61	0.0744782
21.615	0.0744377
21.62	0.0743598
21.625	0.0742403
21.63	0.074081
21.635	0.0738914
21.64	0.0736864
21.645	0.0734847
21.65	0.0733058
21.655	0.0731621
21.66	0.0730533
21.665	0.07297
21.67	0.0729016
21.675	0.07284
21.68	0.0727786
21.685	0.0727122
21.69	0.0726407
21.695	0.0725696
21.7	0.0725067
21.705	0.0724568
21.71	0.0724183
21.715	0.0723828
21.72	0.0723407
21.725	0.0722884
21.73	0.0722272
21.735	0.0721583
21.74	0.0720808
21.745	0.0719954
21.75	0.0719055
21.755	0.0718157
21.76	0.0717309
21.765	0.0716546
21.77	0.0715867
21.775	0.0715197
21.78	0.0714377
21.785	0.0713226
21.79	0.0711673
21.795	0.0709827
21.8	0.0707894
21.805	0.0706001
21.81	0.070413
21.815	0.0702213
21.82	0.0700248
21.825	0.0698274
21.83	0.0696265
21.835	0.0694089
21.84	0.0691611
21.845	0.0688809
21.85	0.0685795
21.855	0.0682745
21.86	0.0679814
21.865	0.0677081
21.87	0.0674525
21.875	0.0672043
21.88	0.0669506
21.885	0.0666856
21.89	0.0664137
21.895	0.0661458
21.9	0.0658928
21.905	0.0656615
21.91	0.0654538
21.915	0.0652687
21.92	0.0651041
21.925	0.0649571
21.93	0.0648201
21.935	0.0646788
21.94	0.0645145
21.945	0.0643118
21.95	0.0640681
21.955	0.0637967
21.96	0.063523
21.965	0.0632724
21.97	0.0630587
21.975	0.0628819
21.98	0.0627337
21.985	0.0626024
21.99	0.0624761
21.995	0.0623467
22	0.062214
22.005	0.0620845
22.01	0.0619644
22.015	0.0618544
22.02	0.0617485
22.025	0.0616377
22.03	0.0615152
22.035	0.0613835
22.04	0.0612566
22.045	0.0611521
22.05	0.0610783
22.055	0.0610276
22.06	0.0609799
22.065	0.0609127
22.07	0.0608127
22.075	0.0606827
22.08	0.0605405
22.085	0.0604074
22.09	0.0602944
22.095	0.0601952
22.1	0.0600946
22.105	0.0599814
22.11	0.0598518
22.115	0.0597021
22.12	0.0595244
22.125	0.0593132
22.13	0.0590749
22.135	0.0588266
22.14	0.0585855
22.145	0.0583596
22.15	0.0581447
22.155	0.0579294
22.16	0.0577052
22.165	0.0574754
22.17	0.0572537
22.175	0.0570523
22.18	0.0568742
22.185	0.0567123
22.19	0.0565553
22.195	0.0563941
22.2	0.0562283
22.205	0.0560663
22.21	0.0559161
22.215	0.0557802
22.22	0.0556585
22.225	0.0555528
22.23	0.0554658
22.235	0.0553978
22.24	0.0553465
22.245	0.0553117
22.25	0.0552938
22.255	0.0552877
22.26	0.0552799
22.265	0.0552565
22.27	0.0552139
22.275	0.0551603
22.28	0.0551061
22.285	0.0550527
22.29	0.0549913
22.295	0.0549127
22.3	0.0548209
22.305	0.054733
22.31	0.0546655
22.315	0.0546197
22.32	0.0545838
22.325	0.0545438
22.33	0.0544915
22.335	0.0544243
22.34	0.0543423
22.345	0.0542469
22.35	0.0541411
22.355	0.0540293
22.36	0.0539203
22.365	0.0538297
22.37	0.0537751
22.375	0.0537658
22.38	0.0537972
22.385	0.0538565
22.39	0.0539335
22.395	0.0540275
22.4	0.054142
22.405	0.0542754
22.41	0.0544156
22.415	0.0545464
22.42	0.0546597
22.425	0.0547595
22.43	0.054855
22.435	0.0549514
22.44	0.0550503
22.445	0.0551526
22.45	0.055261
22.455	0.0553803
22.46	0.055517
22.465	0.0556764
22.47	0.0558601
22.475	0.0560686
22.48	0.0563071
22.485	0.0565851
22.49	0.0569066
22.495	0.0572629
22.5	0.057634
22.505	0.0579958
22.51	0.0583268
22.515	0.0586138
22.52	0.0588564
22.525	0.059065
22.53	0.0592501
22.535	0.0594136
22.54	0.0595503
22.545	0.0596564
22.55	0.0597341
22.555	0.0597908
22.56	0.0598372
22.565	0.0598827
22.57	0.059931
22.575	0.0599783
22.58	0.0600176
22.585	0.0600462
22.59	0.0600663
22.595	0.060081
22.6	0.0600918
22.605	0.0601031
22.61	0.0601256
22.615	0.0601728
22.62	0.0602547
22.625	0.0603727
22.63	0.0605194
22.635	0.0606828
22.64	0.0608534
22.645	0.0610272
22.65	0.0612036
22.655	0.0613791
22.66	0.0615453
22.665	0.0616971
22.67	0.0618405
22.675	0.0619886
22.68	0.0621499
22.685	0.0623199
22.69	0.0624858
22.695	0.0626362
22.7	0.0627672
22.705	0.0628826
22.71	0.062993
22.715	0.0631132
22.72	0.063256
22.725	0.063425
22.73	0.0636128
22.735	0.0638067
22.74	0.0639989
22.745	0.0641906
22.75	0.06439
22.755	0.064606
22.76	0.0648428
22.765	0.0650985
22.77	0.0653725
22.775	0.0656753
22.78	0.0660259
22.785	0.0664354
22.79	0.0668867
22.795	0.0673325
22.8	0.0677183
22.805	0.0680133
22.81	0.0682215
22.815	0.068371
22.82	0.068495
22.825	0.0686205
22.83	0.0687646
22.835	0.0689388
22.84	0.0691508
22.845	0.0694023
22.85	0.069688
22.855	0.0700013
22.86	0.0703405
22.865	0.0707031
22.87	0.0710711
22.875	0.0714072
22.88	0.0716726
22.885	0.0718512
22.89	0.0719555
22.895	0.0720111
22.9	0.0720392
22.905	0.0720496
22.91	0.0720447
22.915	0.0720228
22.92	0.0719819
22.925	0.071919
22.93	0.0718308
22.935	0.0717175
22.94	0.0715856
22.945	0.0714462
22.95	0.0713084
22.955	0.0711761
22.96	0.071049
22.965	0.0709259
22.97	0.0708064
22.975	0.0706874
22.98	0.0705607
22.985	0.0704157
22.99	0.0702437
22.995	0.0700418
23	0.0698115
23.005	0.0695565
23.01	0.0692803
23.015	0.0689884
23.02	0.0686902
23.025	0.0683971
23.03	0.0681199
23.035	0.0678659
23.04	0.0676352
23.045	0.067419
23.05	0.0672024
23.055	0.0669737
23.06	0.066731
23.065	0.0664805
23.07	0.0662308
23.075	0.0659879
23.08	0.0657573
23.085	0.065545
23.09	0.0653557
23.095	0.0651892
23.1	0.0650398
23.105	0.0648994
23.11	0.0647633
23.115	0.0646315
23.12	0.0645028
23.125	0.0643707
23.13	0.0642264
23.135	0.0640681
23.14	0.0639026
23.145	0.0637404
23.15	0.0635874
23.155	0.063441
23.16	0.063294
23.165	0.0631435
23.17	0.0629953
23.175	0.0628562
23.18	0.0627255
23.185	0.0625963
23.19	0.0624632
23.195	0.0623274
23.2	0.0621948
23.205	0.0620716
23.21	0.06196
23.215	0.061855
23.22	0.0617439
23.225	0.0616121
23.23	0.0614508
23.235	0.0612623
23.24	0.06106
23.245	0.0608614
23.25	0.0606803
23.255	0.0605259
23.26	0.0604047
23.265	0.0603197
23.27	0.0602647
23.275	0.0602207
23.28	0.0601609
23.285	0.0600589
23.29	0.0598955
23.295	0.0596638
23.3	0.0593764
23.305	0.0590626
23.31	0.058752
23.315	0.0584578
23.32	0.0581811
23.325	0.0579284
23.33	0.0577156
23.335	0.0575527
23.34	0.0574314
23.345	0.0573295
23.35	0.0572274
23.355	0.0571178
23.36	0.0570041
23.365	0.0568938
23.37	0.0567923
23.375	0.0567
23.38	0.0566111
23.385	0.0565126
23.39	0.0563813
23.395	0.0561888
23.4	0.0559179
23.405	0.055583
23.41	0.0552311
23.415	0.0549173
23.42	0.0546745
23.425	0.0545049
23.43	0.0543926
23.435	0.0543205
23.44	0.0542771
23.445	0.0542563
23.45	0.0542564
23.455	0.0542791
23.46	0.054327
23.465	0.054399
23.47	0.054487
23.475	0.0545759
23.48	0.054649
23.485	0.0546946
23.49	0.0547094
23.495	0.0546964
23.5	0.0546616
23.505	0.054612
23.51	0.0545558
23.515	0.0545009
23.52	0.0544531
23.525	0.0544137
23.53	0.0543814
23.535	0.0543527
23.54	0.0543207
23.545	0.0542767
23.55	0.0542147
23.555	0.0541333
23.56	0.0540345
23.565	0.0539234
23.57	0.0538106
23.575	0.0537108
23.58	0.0536365
23.585	0.053592
23.59	0.0535716
23.595	0.053563
23.6	0.0535536
23.605	0.0535361
23.61	0.0535114
23.615	0.0534874
23.62	0.053475
23.625	0.0534817
23.63	0.0535045
23.635	0.0535293
23.64	0.0535363
23.645	0.0535109
23.65	0.0534524
23.655	0.0533732
23.66	0.0532886
23.665	0.0532089
23.67	0.0531397
23.675	0.0530875
23.68	0.0530608
23.685	0.0530654
23.69	0.053099
23.695	0.0531494
23.7	0.0531982
23.705	0.0532277
23.71	0.0532286
23.715	0.0532052
23.72	0.053174
23.725	0.0531556
23.73	0.0531631
23.735	0.0531945
23.74	0.0532364
23.745	0.0532751
23.75	0.0533028
23.755	0.0533161
23.76	0.0533123
23.765	0.0532894
23.77	0.0532508
23.775	0.0532071
23.78	0.0531718
23.785	0.053155
23.79	0.0531599
23.795	0.0531853
23.8	0.0532281
23.805	0.0532851
23.81	0.0533492
23.815	0.0534066
23.82	0.0534398
23.825	0.0534373
23.83	0.0533978
23.835	0.053327
23.84	0.0532305
23.845	0.0531147
23.85	0.0529899
23.855	0.0528677
23.86	0.052755
23.865	0.0526494
23.87	0.0525435
23.875	0.052432
23.88	0.0523132
23.885	0.0521864
23.89	0.0520512
23.895	0.0519101
23.9	0.0517697
23.905	0.0516371
23.91	0.0515147
23.915	0.0513988
23.92	0.0512818
23.925	0.0511574
23.93	0.0510223
23.935	0.0508742
23.94	0.0507103
23.945	0.0505292
23.95	0.050334
23.955	0.0501317
23.96	0.049927
23.965	0.0497168
23.97	0.0494936
23.975	0.0492541
23.98	0.0490036
23.985	0.0487518
23.99	0.0485068
23.995	0.0482723
24	0.0480455
24.005	0.0478157
24.01	0.0475675
24.015	0.0472912
24.02	0.0469902
24.025	0.0466779
24.03	0.0463684
24.035	0.0460676
24.04	0.0457728
24.045	0.0454787
24.05	0.0451835
24.055	0.0448926
24.06	0.0446145
24.065	0.0443544
24.07	0.0441113
24.075	0.0438773
24.08	0.0436412
24.085	0.0433937
24.09	0.0431344
24.095	0.0428703
24.1	0.0426074
24.105	0.0423474
24.11	0.0420931
24.115	0.0418532
24.12	0.0416388
24.125	0.0414541
24.13	0.0412938
24.135	0.0411482
24.14	0.0410097
24.145	0.0408772
24.15	0.0407546
24.155	0.0406472
24.16	0.0405583
24.165	0.0404866
24.17	0.0404262
24.175	0.0403701
24.18	0.0403171
24.185	0.0402731
24.19	0.040246
24.195	0.0402373
24.2	0.0402407
24.205	0.040247
24.21	0.0402499
24.215	0.0402483
24.22	0.0402459
24.225	0.0402481
24.23	0.0402573
24.235	0.0402711
24.24	0.0402823
24.245	0.0402806
24.25	0.0402556
24.255	0.040204
24.26	0.0401348
24.265	0.040066
24.27	0.0400139
24.275	0.0399857
24.28	0.0399812
24.285	0.0399979
24.29	0.040034
24.295	0.0400875
24.3	0.0401534
24.305	0.0402252
24.31	0.0402986
24.315	0.0403739
24.32	0.0404524
24.325	0.0405314
24.33	0.0406042
24.335	0.0406651
24.34	0.0407136
24.345	0.0407547
24.35	0.0407962
24.355	0.0408452
24.36	0.0409063
24.365	0.0409807
24.37	0.0410666
24.375	0.0411588
24.38	0.0412484
24.385	0.041327
24.39	0.0413918
24.395	0.0414461
24.4	0.0414952
24.405	0.0415424
24.41	0.0415875
24.415	0.0416302
24.42	0.0416717
24.425	0.041715
24.43	0.0417613
24.435	0.0418076
24.44	0.0418488
24.445	0.0418832
24.45	0.0419146
24.455	0.0419478
24.46	0.0419826
24.465	0.042013
24.47	0.0420317
24.475	0.0420357
24.48	0.042026
24.485	0.0420036
24.49	0.0419666
24.495	0.0419133
24.5	0.0418445
24.505	0.0417631
24.51	0.0416721
24.515	0.0415737
24.52	0.0414701
24.525	0.0413618
24.53	0.0412468
24.535	0.0411235
24.54	0.0409951
24.545	0.0408697
24.55	0.0407558
24.555	0.0406567
24.56	0.0405687
24.565	0.0404845
24.57	0.0403995
24.575	0.0403147
24.58	0.0402324
24.585	0.0401521
24.59	0.0400695
24.595	0.0399796
24.6	0.0398784
24.605	0.039767
24.61	0.0396525
24.615	0.0395445
24.62	0.0394482
24.625	0.039362
24.63	0.0392818
24.635	0.0392069
24.64	0.0391406
24.645	0.0390859
24.65	0.0390415
24.655	0.0390029
24.66	0.0389664
24.665	0.0389298
24.67	0.0388915
24.675	0.0388493
24.68	0.0388014
24.685	0.0387475
24.69	0.0386864
24.695	0.0386148
24.7	0.0385295
24.705	0.0384314
24.71	0.0383267
24.715	0.0382215
24.72	0.0381173
24.725	0.0380124
24.73	0.0379068
24.735	0.0378058
24.74	0.0377177
24.745	0.037649
24.75	0.0376015
24.755	0.0375723
24.76	0.0375546
24.765	0.0375405
24.77	0.0375239
24.775	0.0375026
24.78	0.0374764
24.785	0.0374433
24.79	0.0373989
24.795	0.0373388
24.8	0.0372613
24.805	0.0371696
24.81	0.0370725
24.815	0.036981
24.82	0.0369029
24.825	0.0368392
24.83	0.0367864
24.835	0.0367406
24.84	0.0366989
24.845	0.0366597
24.85	0.0366215
24.855	0.0365821
24.86	0.0365377
24.865	0.0364833
24.87	0.0364141
24.875	0.0363283
24.88	0.0362282
24.885	0.036121
24.89	0.0360146
24.895	0.0359142
24.9	0.0358198
24.905	0.0357279
24.91	0.0356347
24.915	0.0355381
24.92	0.0354373
24.925	0.0353328
24.93	0.0352249
24.935	0.0351125
24.94	0.0349943
24.945	0.0348707
24.95	0.0347464
24.955	0.0346287
24.96	0.0345226
24.965	0.0344263
24.97	0.0343333
24.975	0.0342374
24.98	0.0341389
24.985	0.0340428
24.99	0.0339525
24.995	0.033867
25	0.033783
25.005	0.0336992
25.01	0.0336159
25.015	0.033533
25.02	0.0334488
25.025	0.0333634
25.03	0.033279
25.035	0.0331975
25.04	0.0331183
25.045	0.0330385
25.05	0.0329557
25.055	0.0328703
25.06	0.0327855
25.065	0.032706
25.07	0.032635
25.075	0.0325717
25.08	0.0325111
25.085	0.0324472
25.09	0.0323772
25.095	0.0323043
25.1	0.0322345
25.105	0.0321708
25.11	0.0321114
25.115	0.0320531
25.12	0.031996
25.125	0.031942
25.13	0.031891
25.135	0.0318405
25.14	0.0317901
25.145	0.0317432
25.15	0.0317048
25.155	0.0316773
25.16	0.0316588
25.165	0.0316438
25.17	0.0316266
25.175	0.0316044
25.18	0.0315779
25.185	0.0315494
25.19	0.0315213
25.195	0.0314961
25.2	0.0314761
25.205	0.0314626
25.21	0.0314541
25.215	0.0314473
25.22	0.0314378
25.225	0.0314207
25.23	0.0313931
25.235	0.0313568
25.24	0.0313196
25.245	0.031292
25.25	0.0312814
25.255	0.0312889
25.26	0.0313078
25.265	0.0313256
25.27	0.0313299
25.275	0.0313141
25.28	0.0312812
25.285	0.03124
25.29	0.0311989
25.295	0.0311616
25.3	0.0311271
25.305	0.0310926
25.31	0.0310562
25.315	0.0310185
25.32	0.0309816
25.325	0.0309493
25.33	0.0309259
25.335	0.0309138
25.34	0.0309103
25.345	0.0309098
25.35	0.0309076
25.355	0.0309011
25.36	0.0308896
25.365	0.0308752
25.37	0.0308637
25.375	0.0308622
25.38	0.0308753
25.385	0.0309025
25.39	0.0309398
25.395	0.030982
25.4	0.0310252
25.405	0.031067
25.41	0.0311047
25.415	0.031135
25.42	0.0311561
25.425	0.03117
25.43	0.0311812
25.435	0.0311935
25.44	0.0312084
25.445	0.0312265
25.45	0.0312496
25.455	0.0312812
25.46	0.0313243
25.465	0.0313781
25.47	0.0314379
25.475	0.0314984
25.48	0.0315569
25.485	0.0316151
25.49	0.0316769
25.495	0.0317451
25.5	0.0318185
25.505	0.0318926
25.51	0.0319624
25.515	0.0320229
25.52	0.0320694
25.525	0.0320993
25.53	0.0321148
25.535	0.0321232
25.54	0.0321318
25.545	0.0321436
25.55	0.0321579
25.555	0.0321718
25.56	0.0321802
25.565	0.032176
25.57	0.0321531
25.575	0.03211
25.58	0.0320494
25.585	0.0319767
25.59	0.0318984
25.595	0.0318219
25.6	0.0317541
25.605	0.0317001
25.61	0.0316641
25.615	0.0316496
25.62	0.0316565
25.625	0.0316779
25.63	0.0317003
25.635	0.03171
25.64	0.0316991
25.645	0.0316679
25.65	0.0316227
25.655	0.0315729
25.66	0.0315288
25.665	0.0314993
25.67	0.0314903
25.675	0.0315033
25.68	0.031536
25.685	0.0315836
25.69	0.0316404
25.695	0.0317017
25.7	0.0317642
25.705	0.0318286
25.71	0.0318992
25.715	0.031982
25.72	0.0320819
25.725	0.0322022
25.73	0.0323448
25.735	0.0325099
25.74	0.0326908
25.745	0.0328704
25.75	0.0330222
25.755	0.0331193
25.76	0.0331484
25.765	0.0331195
25.77	0.0330624
25.775	0.0330118
25.78	0.0329912
25.785	0.0330044
25.79	0.0330395
25.795	0.0330769
25.8	0.0330934
25.805	0.0330648
25.81	0.0329726
25.815	0.0328158
25.82	0.0326136
25.825	0.0323939
25.83	0.0321771
25.835	0.0319701
25.84	0.0317721
25.845	0.0315812
25.85	0.0313978
25.855	0.0312251
25.86	0.0310678
25.865	0.0309295
25.87	0.0308109
25.875	0.0307098
25.88	0.0306236
25.885	0.0305501
25.89	0.0304882
25.895	0.0304371
25.9	0.0303973
25.905	0.0303691
25.91	0.0303502
25.915	0.0303347
25.92	0.0303166
25.925	0.0302918
25.93	0.0302592
25.935	0.0302181
25.94	0.0301686
25.945	0.0301126
25.95	0.0300534
25.955	0.0299943
25.96	0.0299375
25.965	0.0298843
25.97	0.0298346
25.975	0.0297869
25.98	0.0297391
25.985	0.0296896
25.99	0.0296385
25.995	0.0295868
26	0.0295346
26.005	0.0294807
26.01	0.0294237
26.015	0.0293642
26.02	0.0293056
26.025	0.0292522
26.03	0.0292067
26.035	0.0291686
26.04	0.0291361
26.045	0.0291087
26.05	0.0290859
26.055	0.029067
26.06	0.0290502
26.065	0.0290346
26.07	0.0290213
26.075	0.0290128
26.08	0.0290115
26.085	0.0290187
26.09	0.0290335
26.095	0.0290533
26.1	0.0290744
26.105	0.0290942
26.11	0.0291123
26.115	0.0291293
26.12	0.0291449
26.125	0.0291584
26.13	0.0291711
26.135	0.0291855
26.14	0.0292019
26.145	0.0292152
26.15	0.0292173
26.155	0.0292015
26.16	0.0291668
26.165	0.0291178
26.17	0.0290619
26.175	0.0290051
26.18	0.0289489
26.185	0.0288927
26.19	0.0288357
26.195	0.0287785
26.2	0.0287216
26.205	0.0286642
26.21	0.0286026
26.215	0.0285322
26.22	0.0284514
26.225	0.0283629
26.23	0.0282712
26.235	0.0281788
26.24	0.0280859
26.245	0.0279919
26.25	0.027898
26.255	0.0278067
26.26	0.0277193
26.265	0.0276361
26.27	0.0275588
26.275	0.027493
26.28	0.0274457
26.285	0.0274202
26.29	0.027413
26.295	0.027416
26.3	0.0274206
26.305	0.0274207
26.31	0.0274136
26.315	0.0273986
26.32	0.0273767
26.325	0.0273489
26.33	0.027316
26.335	0.0272779
26.34	0.0272352
26.345	0.0271898
26.35	0.0271455
26.355	0.0271058
26.36	0.0270723
26.365	0.0270445
26.37	0.02702
26.375	0.0269953
26.38	0.0269657
26.385	0.0269283
26.39	0.0268841
26.395	0.026839
26.4	0.0268009
26.405	0.0267755
26.41	0.0267646
26.415	0.0267661
26.42	0.0267747
26.425	0.0267838
26.43	0.026789
26.435	0.0267907
26.44	0.0267926
26.445	0.0267984
26.45	0.0268093
26.455	0.0268256
26.46	0.0268481
26.465	0.0268771
26.47	0.0269098
26.475	0.0269394
26.48	0.0269586
26.485	0.0269626
26.49	0.0269518
26.495	0.0269316
26.5	0.02691
26.505	0.0268948
26.51	0.0268895
26.515	0.0268926
26.52	0.0268997
26.525	0.0269069
26.53	0.0269135
26.535	0.0269213
26.54	0.0269319
26.545	0.0269444
26.55	0.0269561
26.555	0.0269646
26.56	0.0269702
26.565	0.0269769
26.57	0.0269902
26.575	0.0270143
26.58	0.0270498
26.585	0.0270934
26.59	0.0271402
26.595	0.0271877
26.6	0.0272378
26.605	0.0272943
26.61	0.0273593
26.615	0.0274289
26.62	0.0274952
26.625	0.0275515
26.63	0.0275974
26.635	0.0276377
26.64	0.0276769
26.645	0.0277143
26.65	0.0277436
26.655	0.0277556
26.66	0.0277441
26.665	0.0277105
26.67	0.0276635
26.675	0.0276154
26.68	0.0275755
26.685	0.0275473
26.69	0.0275299
26.695	0.0275216
26.7	0.0275222
26.705	0.0275343
26.71	0.0275593
26.715	0.0275946
26.72	0.0276328
26.725	0.0276652
26.73	0.0276871
26.735	0.0276991
26.74	0.0277052
26.745	0.0277083
26.75	0.0277085
26.755	0.0277034
26.76	0.02769
26.765	0.0276669
26.77	0.0276359
26.775	0.0276033
26.78	0.027577
26.785	0.027563
26.79	0.0275625
26.795	0.0275731
26.8	0.0275906
26.805	0.0276096
26.81	0.027625
26.815	0.0276352
26.82	0.0276436
26.825	0.0276549
26.83	0.0276706
26.835	0.0276891
26.84	0.0277096
26.845	0.027733
26.85	0.0277603
26.855	0.0277916
26.86	0.0278265
26.865	0.0278642
26.87	0.0279035
26.875	0.0279419
26.88	0.0279764
26.885	0.0280044
26.89	0.0280253
26.895	0.0280418
26.9	0.0280594
26.905	0.0280832
26.91	0.0281145
26.915	0.0281495
26.92	0.0281819
26.925	0.0282073
26.93	0.0282267
26.935	0.0282456
26.94	0.0282703
26.945	0.0283023
26.95	0.0283386
26.955	0.0283755
26.96	0.0284109
26.965	0.0284433
26.97	0.0284707
26.975	0.0284924
26.98	0.0285111
26.985	0.0285299
26.99	0.0285495
26.995	0.0285672
27	0.0285795
27.005	0.0285845
27.01	0.0285826
27.015	0.0285753
27.02	0.0285648
27.025	0.0285519
27.03	0.028535
27.035	0.0285105
27.04	0.0284752
27.045	0.0284288
27.05	0.0283739
27.055	0.0283149
27.06	0.0282566
27.065	0.0282038
27.07	0.0281598
27.075	0.0281263
27.08	0.0281029
27.085	0.0280881
27.09	0.0280804
27.095	0.0280787
27.1	0.028083
27.105	0.0280922
27.11	0.0281014
27.115	0.0281035
27.12	0.0280938
27.125	0.0280724
27.13	0.0280412
27.135	0.0280015
27.14	0.0279537
27.145	0.0278973
27.15	0.0278307
27.155	0.0277529
27.16	0.0276674
27.165	0.0275828
27.17	0.0275077
27.175	0.0274446
27.18	0.0273886
27.185	0.0273327
27.19	0.0272733
27.195	0.027212
27.2	0.0271518
27.205	0.0270941
27.21	0.0270381
27.215	0.0269828
27.22	0.0269287
27.225	0.0268772
27.23	0.0268281
27.235	0.0267793
27.24	0.0267286
27.245	0.026676
27.25	0.0266236
27.255	0.0265726
27.26	0.0265219
27.265	0.0264689
27.27	0.0264114
27.275	0.0263489
27.28	0.0262825
27.285	0.0262128
27.29	0.02614
27.295	0.0260642
27.3	0.0259871
27.305	0.0259121
27.31	0.0258426
27.315	0.0257795
27.32	0.0257219
27.325	0.0256686
27.33	0.0256189
27.335	0.0255715
27.34	0.0255244
27.345	0.0254766
27.35	0.0254293
27.355	0.0253853
27.36	0.0253472
27.365	0.0253156
27.37	0.0252885
27.375	0.0252624
27.38	0.0252348
27.385	0.0252055
27.39	0.0251768
27.395	0.0251511
27.4	0.0251297
27.405	0.0251116
27.41	0.0250955
27.415	0.025081
27.42	0.0250688
27.425	0.0250602
27.43	0.0250553
27.435	0.0250517
27.44	0.0250452
27.445	0.0250317
27.45	0.0250088
27.455	0.024978
27.46	0.0249437
27.465	0.0249117
27.47	0.0248851
27.475	0.0248631
27.48	0.0248422
27.485	0.0248201
27.49	0.0247979
27.495	0.0247777
27.5	0.02476
27.505	0.0247421
27.51	0.0247209
27.515	0.0246967
27.52	0.0246729
27.525	0.0246537
27.53	0.0246432
27.535	0.0246444
27.54	0.024659
27.545	0.0246851
27.55	0.0247178
27.555	0.0247503
27.56	0.0247766
27.565	0.0247947
27.57	0.0248075
27.575	0.0248209
27.58	0.0248393
27.585	0.0248613
27.59	0.0248802
27.595	0.0248884
27.6	0.0248836
27.605	0.0248685
27.61	0.0248478
27.615	0.0248247
27.62	0.0248012
27.625	0.0247797
27.63	0.024762
27.635	0.0247478
27.64	0.0247343
27.645	0.0247179
27.65	0.0246955
27.655	0.0246656
27.66	0.0246292
27.665	0.0245896
27.67	0.0245523
27.675	0.0245216
27.68	0.0244985
27.685	0.0244795
27.69	0.0244598
27.695	0.0244365
27.7	0.0244116
27.705	0.0243892
27.71	0.0243733
27.715	0.0243656
27.72	0.0243662
27.725	0.0243738
27.73	0.0243851
27.735	0.0243958
27.74	0.0244025
27.745	0.0244039
27.75	0.0244011
27.755	0.024397
27.76	0.0243958
27.765	0.0244015
27.77	0.0244145
27.775	0.024431
27.78	0.0244442
27.785	0.0244484
27.79	0.0244418
27.795	0.0244257
27.8	0.024403
27.805	0.0243747
27.81	0.0243397
27.815	0.024296
27.82	0.0242424
27.825	0.0241806
27.83	0.0241145
27.835	0.0240493
27.84	0.0239894
27.845	0.023937
27.85	0.0238902
27.855	0.0238452
27.86	0.0237986
27.865	0.0237506
27.87	0.0237039
27.875	0.0236609
27.88	0.0236223
27.885	0.0235883
27.89	0.0235582
27.895	0.0235307
27.9	0.0235031
27.905	0.0234729
27.91	0.0234391
27.915	0.0234018
27.92	0.0233618
27.925	0.023321
27.93	0.0232814
27.935	0.0232449
27.94	0.0232119
27.945	0.0231811
27.95	0.0231508
27.955	0.0231207
27.96	0.0230922
27.965	0.0230687
27.97	0.023053
27.975	0.0230449
27.98	0.0230412
27.985	0.023038
27.99	0.0230326
27.995	0.0230249
28	0.0230155
28.005	0.0230067
28.01	0.0230019
28.015	0.0230045
28.02	0.0230157
28.025	0.0230345
28.03	0.0230601
28.035	0.0230934
28.04	0.0231364
28.045	0.0231911
28.05	0.0232603
28.055	0.0233477
28.06	0.0234557
28.065	0.0235797
28.07	0.0237046
28.075	0.0238097
28.08	0.0238775
28.085	0.0239025
28.09	0.0238914
28.095	0.0238562
28.1	0.0238053
28.105	0.0237392
28.11	0.0236533
28.115	0.0235456
28.12	0.0234204
28.125	0.0232855
28.13	0.0231475
28.135	0.0230098
28.14	0.0228744
28.145	0.0227429
28.15	0.0226167
28.155	0.0224965
28.16	0.0223834
28.165	0.0222776
28.17	0.0221783
28.175	0.0220831
28.18	0.0219895
28.185	0.0218954
28.19	0.0218004
28.195	0.0217059
28.2	0.0216146
28.205	0.0215285
28.21	0.0214476
28.215	0.0213701
28.22	0.0212934
28.225	0.0212156
28.23	0.0211362
28.235	0.0210561
28.24	0.0209765
28.245	0.0208976
28.25	0.0208188
28.255	0.0207395
28.26	0.0206602
28.265	0.0205822
28.27	0.0205057
28.275	0.0204297
28.28	0.0203537
28.285	0.0202801
28.29	0.0202125
28.295	0.0201525
28.3	0.0200972
28.305	0.0200406
28.31	0.0199785
28.315	0.0199104
28.32	0.0198394
28.325	0.019769
28.33	0.0197008
28.335	0.0196344
28.34	0.0195697
28.345	0.0195075
28.35	0.0194478
28.355	0.0193888
28.36	0.0193284
28.365	0.019267
28.37	0.0192083
28.375	0.0191567
28.38	0.0191143
28.385	0.0190788
28.39	0.0190461
28.395	0.0190129
28.4	0.0189782
28.405	0.0189416
28.41	0.0189021
28.415	0.0188581
28.42	0.0188097
28.425	0.01876
28.43	0.0187139
28.435	0.0186737
28.44	0.0186375
28.445	0.0186004
28.45	0.0185589
28.455	0.0185132
28.46	0.0184663
28.465	0.0184212
28.47	0.0183793
28.475	0.0183408
28.48	0.0183051
28.485	0.0182708
28.49	0.0182358
28.495	0.0181973
28.5	0.0181542
28.505	0.0181072
28.51	0.0180603
28.515	0.0180183
28.52	0.0179842
28.525	0.0179579
28.53	0.017937
28.535	0.0179188
28.54	0.0179013
28.545	0.0178835
28.55	0.0178642
28.555	0.0178429
28.56	0.0178209
28.565	0.0178005
28.57	0.0177844
28.575	0.0177747
28.58	0.0177712
28.585	0.0177731
28.59	0.01778
28.595	0.0177919
28.6	0.0178068
28.605	0.0178216
28.61	0.0178352
28.615	0.0178495
28.62	0.0178679
28.625	0.0178915
28.63	0.0179189
28.635	0.0179475
28.64	0.0179758
28.645	0.0180048
28.65	0.0180367
28.655	0.0180723
28.66	0.0181108
28.665	0.0181506
28.67	0.018191
28.675	0.0182321
28.68	0.0182743
28.685	0.0183173
28.69	0.0183609
28.695	0.0184053
28.7	0.0184512
28.705	0.0184988
28.71	0.018547
28.715	0.0185948
28.72	0.0186423
28.725	0.0186911
28.73	0.0187423
28.735	0.0187947
28.74	0.0188458
28.745	0.018895
28.75	0.0189434
28.755	0.018992
28.76	0.0190398
28.765	0.0190852
28.77	0.0191286
28.775	0.0191719
28.78	0.0192173
28.785	0.0192661
28.79	0.019319
28.795	0.0193747
28.8	0.0194302
28.805	0.0194813
28.81	0.0195253
28.815	0.0195626
28.82	0.0195955
28.825	0.0196255
28.83	0.0196523
28.835	0.0196741
28.84	0.0196899
28.845	0.0197007
28.85	0.0197085
28.855	0.0197148
28.86	0.0197201
28.865	0.0197245
28.87	0.0197284
28.875	0.0197319
28.88	0.0197348
28.885	0.0197373
28.89	0.0197399
28.895	0.0197434
28.9	0.0197478
28.905	0.0197516
28.91	0.0197527
28.915	0.0197491
28.92	0.0197414
28.925	0.019732
28.93	0.0197233
28.935	0.0197163
28.94	0.0197121
28.945	0.0197119
28.95	0.019717
28.955	0.0197272
28.96	0.019741
28.965	0.0197564
28.97	0.0197728
28.975	0.0197903
28.98	0.0198092
28.985	0.0198285
28.99	0.0198467
28.995	0.0198637
29	0.0198806
29.005	0.0198992
29.01	0.0199205
29.015	0.0199448
29.02	0.0199713
29.025	0.0199977
29.03	0.0200197
29.035	0.0200319
29.04	0.020031
29.045	0.0200176
29.05	0.0199951
29.055	0.0199674
29.06	0.0199375
29.065	0.0199066
29.07	0.0198752
29.075	0.0198432
29.08	0.019811
29.085	0.0197789
29.09	0.019747
29.095	0.019714
29.1	0.0196776
29.105	0.0196363
29.11	0.0195903
29.115	0.0195407
29.12	0.0194884
29.125	0.0194338
29.13	0.0193776
29.135	0.01932
29.14	0.0192611
29.145	0.0192013
29.15	0.0191408
29.155	0.0190795
29.16	0.0190161
29.165	0.0189489
29.17	0.0188774
29.175	0.0188026
29.18	0.0187258
29.185	0.0186475
29.19	0.0185671
29.195	0.0184846
29.2	0.0184009
29.205	0.018318
29.21	0.018238
29.215	0.0181622
29.22	0.0180914
29.225	0.0180251
29.23	0.0179635
29.235	0.0179081
29.24	0.0178607
29.245	0.0178231
29.25	0.0177952
29.255	0.0177754
29.26	0.0177607
29.265	0.0177476
29.27	0.0177335
29.275	0.0177153
29.28	0.0176887
29.285	0.0176489
29.29	0.0175947
29.295	0.0175305
29.3	0.017464
29.305	0.0174007
29.31	0.0173423
29.315	0.0172892
29.32	0.017243
29.325	0.0172068
29.33	0.017181
29.335	0.0171628
29.34	0.0171482
29.345	0.0171345
29.35	0.0171215
29.355	0.0171096
29.36	0.0170989
29.365	0.0170894
29.37	0.0170812
29.375	0.0170741
29.38	0.0170684
29.385	0.0170645
29.39	0.0170625
29.395	0.0170619
29.4	0.0170613
29.405	0.0170599
29.41	0.0170574
29.415	0.017055
29.42	0.0170548
29.425	0.0170588
29.43	0.0170672
29.435	0.0170786
29.44	0.0170923
29.445	0.0171083
29.45	0.0171274
29.455	0.0171493
29.46	0.017172
29.465	0.0171939
29.47	0.0172149
29.475	0.0172359
29.48	0.0172575
29.485	0.0172788
29.49	0.0172974
29.495	0.0173109
29.5	0.0173189
29.505	0.0173219
29.51	0.0173209
29.515	0.0173161
29.52	0.0173072
29.525	0.017294
29.53	0.0172776
29.535	0.0172598
29.54	0.0172423
29.545	0.0172262
29.55	0.0172118
29.555	0.0171996
29.56	0.0171889
29.565	0.0171786
29.57	0.0171685
29.575	0.0171598
29.58	0.0171535
29.585	0.0171482
29.59	0.0171406
29.595	0.017128
29.6	0.0171106
29.605	0.0170905
29.61	0.0170702
29.615	0.0170513
29.62	0.0170342
29.625	0.0170195
29.63	0.0170076
29.635	0.0169992
29.64	0.0169942
29.645	0.0169911
29.65	0.0169877
29.655	0.0169819
29.66	0.0169729
29.665	0.0169608
29.67	0.0169466
29.675	0.016931
29.68	0.0169137
29.685	0.0168935
29.69	0.01687
29.695	0.0168446
29.7	0.0168199
29.705	0.0167989
29.71	0.0167836
29.715	0.0167745
29.72	0.0167701
29.725	0.0167682
29.73	0.0167676
29.735	0.0167681
29.74	0.0167694
29.745	0.0167697
29.75	0.0167665
29.755	0.0167582
29.76	0.0167449
29.765	0.0167287
29.77	0.0167118
29.775	0.0166948
29.78	0.0166752
29.785	0.0166497
29.79	0.0166169
29.795	0.0165788
29.8	0.0165393
29.805	0.0165016
29.81	0.0164657
29.815	0.0164298
29.82	0.0163924
29.825	0.0163536
29.83	0.0163142
29.835	0.0162748
29.84	0.0162363
29.845	0.0162007
29.85	0.0161691
29.855	0.0161414
29.86	0.0161162
29.865	0.0160921
29.87	0.0160684
29.875	0.0160439
29.88	0.0160181
29.885	0.015991
29.89	0.0159629
29.895	0.0159344
29.9	0.0159059
29.905	0.0158776
29.91	0.0158496
29.915	0.0158215
29.92	0.0157925
29.925	0.0157615
29.93	0.0157286
29.935	0.0156956
29.94	0.015665
29.945	0.0156384
29.95	0.0156163
29.955	0.015598
29.96	0.0155822
29.965	0.0155681
29.97	0.0155561
29.975	0.0155473
29.98	0.0155418
29.985	0.015538
29.99	0.0155333
29.995	0.0155261
30	0.0155161
30.005	0.015505
30.01	0.0154945
30.015	0.0154852
30.02	0.0154766
30.025	0.0154686
30.03	0.0154612
30.035	0.0154545
30.04	0.0154485
30.045	0.0154438
30.05	0.0154416
30.055	0.0154424
30.06	0.0154453
30.065	0.0154486
30.07	0.0154519
30.075	0.0154566
30.08	0.0154648
30.085	0.015477
30.09	0.0154924
30.095	0.0155097
30.1	0.0155281
30.105	0.0155475
30.11	0.0155673
30.115	0.0155876
30.12	0.0156091
30.125	0.0156326
30.13	0.0156595
30.135	0.0156913
30.14	0.0157294
30.145	0.0157734
30.15	0.0158214
30.155	0.01587
30.16	0.0159172
30.165	0.0159623
30.17	0.0160058
30.175	0.0160481
30.18	0.0160887
30.185	0.0161261
30.19	0.0161577
30.195	0.0161803
30.2	0.0161919
30.205	0.0161936
30.21	0.0161897
30.215	0.0161846
30.22	0.0161798
30.225	0.0161741
30.23	0.016167
30.235	0.01616
30.24	0.0161556
30.245	0.016155
30.25	0.0161578
30.255	0.0161629
30.26	0.01617
30.265	0.0161793
30.27	0.0161911
30.275	0.0162049
30.28	0.0162191
30.285	0.0162322
30.29	0.0162439
30.295	0.0162553
30.3	0.0162668
30.305	0.0162778
30.31	0.0162865
30.315	0.0162922
30.32	0.0162965
30.325	0.0163023
30.33	0.0163111
30.335	0.016322
30.34	0.0163325
30.345	0.0163411
30.35	0.0163483
30.355	0.0163559
30.36	0.0163653
30.365	0.0163768
30.37	0.0163896
30.375	0.0164029
30.38	0.016417
30.385	0.0164318
30.39	0.0164455
30.395	0.0164547
30.4	0.0164568
30.405	0.0164526
30.41	0.0164443
30.415	0.0164333
30.42	0.0164192
30.425	0.0164022
30.43	0.0163834
30.435	0.0163642
30.44	0.0163439
30.445	0.0163215
30.45	0.0162965
30.455	0.01627
30.46	0.0162422
30.465	0.0162127
30.47	0.0161809
30.475	0.016147
30.48	0.0161113
30.485	0.0160741
30.49	0.0160366
30.495	0.0160012
30.5	0.0159693
30.505	0.0159404
30.51	0.0159121
30.515	0.0158826
30.52	0.015852
30.525	0.0158218
30.53	0.0157938
30.535	0.0157695
30.54	0.0157502
30.545	0.0157366
30.55	0.0157278
30.555	0.0157218
30.56	0.0157163
30.565	0.0157095
30.57	0.0157005
30.575	0.0156897
30.58	0.0156768
30.585	0.0156609
30.59	0.0156406
30.595	0.0156156
30.6	0.0155863
30.605	0.0155538
30.61	0.015519
30.615	0.0154811
30.62	0.0154385
30.625	0.0153895
30.63	0.015333
30.635	0.0152695
30.64	0.0152014
30.645	0.0151317
30.65	0.0150624
30.655	0.0149931
30.66	0.0149223
30.665	0.0148502
30.67	0.0147797
30.675	0.0147155
30.68	0.0146604
30.685	0.0146127
30.69	0.0145671
30.695	0.0145181
30.7	0.0144635
30.705	0.0144045
30.71	0.0143436
30.715	0.0142831
30.72	0.014224
30.725	0.0141674
30.73	0.0141136
30.735	0.0140627
30.74	0.0140146
30.745	0.0139696
30.75	0.0139274
30.755	0.0138874
30.76	0.0138495
30.765	0.0138137
30.77	0.0137789
30.775	0.0137427
30.78	0.013703
30.785	0.013661
30.79	0.0136197
30.795	0.013582
30.8	0.0135477
30.805	0.0135151
30.81	0.0134826
30.815	0.0134499
30.82	0.013418
30.825	0.0133879
30.83	0.0133599
30.835	0.0133327
30.84	0.0133041
30.845	0.0132721
30.85	0.013237
30.855	0.0132005
30.86	0.0131642
30.865	0.0131283
30.87	0.0130918
30.875	0.0130539
30.88	0.0130148
30.885	0.0129754
30.89	0.0129371
30.895	0.0129015
30.9	0.0128697
30.905	0.0128422
30.91	0.0128181
30.915	0.0127963
30.92	0.0127757
30.925	0.0127554
30.93	0.0127346
30.935	0.0127134
30.94	0.0126926
30.945	0.0126735
30.95	0.0126566
30.955	0.0126413
30.96	0.0126269
30.965	0.0126125
30.97	0.0125986
30.975	0.0125857
30.98	0.0125746
30.985	0.0125655
30.99	0.0125584
30.995	0.0125534
31	0.0125517
31.005	0.0125542
31.01	0.0125613
31.015	0.0125727
31.02	0.0125879
31.025	0.0126066
31.03	0.0126297
31.035	0.0126584
31.04	0.0126931
31.045	0.0127319
31.05	0.0127715
31.055	0.0128083
31.06	0.012841
31.065	0.0128708
31.07	0.0129002
31.075	0.0129303
31.08	0.0129608
31.085	0.0129914
31.09	0.0130223
31.095	0.0130535
31.1	0.0130835
31.105	0.0131094
31.11	0.0131273
31.115	0.0131343
31.12	0.0131285
31.125	0.013108
31.13	0.0130709
31.135	0.0130164
31.14	0.012947
31.145	0.0128674
31.15	0.0127831
31.155	0.0126986
31.16	0.0126172
31.165	0.0125411
31.17	0.0124725
31.175	0.0124122
31.18	0.01236
31.185	0.012314
31.19	0.0122722
31.195	0.0122334
31.2	0.0121974
31.205	0.0121645
31.21	0.0121345
31.215	0.0121063
31.22	0.0120775
31.225	0.0120458
31.23	0.0120101
31.235	0.0119709
31.24	0.011929
31.245	0.011885
31.25	0.0118394
31.255	0.0117939
31.26	0.0117523
31.265	0.0117178
31.27	0.0116911
31.275	0.0116705
31.28	0.0116546
31.285	0.0116438
31.29	0.0116386
31.295	0.0116379
31.3	0.0116392
31.305	0.0116402
31.31	0.0116401
31.315	0.0116407
31.32	0.0116438
31.325	0.0116504
31.33	0.0116601
31.335	0.0116727
31.34	0.011688
31.345	0.0117056
31.35	0.0117236
31.355	0.0117398
31.36	0.0117528
31.365	0.0117621
31.37	0.0117666
31.375	0.0117648
31.38	0.0117553
31.385	0.0117378
31.39	0.0117133
31.395	0.0116844
31.4	0.0116548
31.405	0.0116268
31.41	0.0116011
31.415	0.0115762
31.42	0.0115511
31.425	0.0115253
31.43	0.0114993
31.435	0.0114739
31.44	0.0114496
31.445	0.0114269
31.45	0.011406
31.455	0.0113872
31.46	0.0113702
31.465	0.0113542
31.47	0.0113383
31.475	0.0113222
31.48	0.0113069
31.485	0.0112935
31.49	0.0112827
31.495	0.0112735
31.5	0.0112651
31.505	0.0112566
31.51	0.0112479
31.515	0.0112385
31.52	0.0112277
31.525	0.0112153
31.53	0.0112007
31.535	0.0111834
31.54	0.0111627
31.545	0.011139
31.55	0.0111146
31.555	0.0110921
31.56	0.0110734
31.565	0.0110584
31.57	0.011046
31.575	0.0110354
31.58	0.011026
31.585	0.0110188
31.59	0.011015
31.595	0.0110149
31.6	0.0110169
31.605	0.011019
31.61	0.0110214
31.615	0.011027
31.62	0.0110397
31.625	0.0110609
31.63	0.0110875
31.635	0.0111145
31.64	0.0111379
31.645	0.0111568
31.65	0.0111727
31.655	0.0111878
31.66	0.0112034
31.665	0.01122
31.67	0.0112368
31.675	0.0112518
31.68	0.0112632
31.685	0.0112717
31.69	0.0112798
31.695	0.0112902
31.7	0.0113037
31.705	0.0113195
31.71	0.0113369
31.715	0.0113558
31.72	0.0113769
31.725	0.0114006
31.73	0.0114273
31.735	0.0114566
31.74	0.0114871
31.745	0.0115167
31.75	0.0115434
31.755	0.0115665
31.76	0.0115866
31.765	0.0116054
31.77	0.0116246
31.775	0.0116445
31.78	0.0116642
31.785	0.0116823
31.79	0.0116982
31.795	0.0117127
31.8	0.0117271
31.805	0.0117418
31.81	0.0117556
31.815	0.0117667
31.82	0.0117735
31.825	0.0117755
31.83	0.011773
31.835	0.0117671
31.84	0.0117581
31.845	0.0117453
31.85	0.0117279
31.855	0.0117058
31.86	0.0116803
31.865	0.0116539
31.87	0.0116287
31.875	0.0116053
31.88	0.0115831
31.885	0.0115611
31.89	0.0115389
31.895	0.0115166
31.9	0.0114949
31.905	0.0114737
31.91	0.011452
31.915	0.0114289
31.92	0.0114045
31.925	0.0113809
31.93	0.0113601
31.935	0.0113421
31.94	0.0113242
31.945	0.0113029
31.95	0.0112761
31.955	0.0112448
31.96	0.0112121
31.965	0.0111815
31.97	0.0111538
31.975	0.0111276
31.98	0.0110997
31.985	0.0110676
31.99	0.0110305
31.995	0.0109902
32	0.0109496
32.005	0.0109107
32.01	0.0108731
32.015	0.0108346
32.02	0.010794
32.025	0.0107524
32.03	0.0107124
32.035	0.010676
32.04	0.0106432
32.045	0.0106133
32.05	0.0105856
32.055	0.0105598
32.06	0.0105359
32.065	0.0105137
32.07	0.0104932
32.075	0.0104737
32.08	0.0104546
32.085	0.0104349
32.09	0.0104141
32.095	0.0103913
32.1	0.010365
32.105	0.0103338
32.11	0.0102977
32.115	0.0102585
32.12	0.0102183
32.125	0.0101782
32.13	0.0101379
32.135	0.0100963
32.14	0.0100528
32.145	0.0100074
32.15	0.00996072
32.155	0.00991365
32.16	0.00986728
32.165	0.00982279
32.17	0.00978087
32.175	0.00974149
32.18	0.0097041
32.185	0.00966783
32.19	0.00963154
32.195	0.00959395
32.2	0.00955448
32.205	0.00951395
32.21	0.00947408
32.215	0.00943559
32.22	0.00939716
32.225	0.00935673
32.23	0.009314
32.235	0.00927121
32.24	0.00923134
32.245	0.00919575
32.25	0.00916374
32.255	0.00913417
32.26	0.00910702
32.265	0.00908297
32.27	0.00906203
32.275	0.00904326
32.28	0.00902563
32.285	0.00900865
32.29	0.00899224
32.295	0.00897669
32.3	0.00896294
32.305	0.00895204
32.31	0.00894406
32.315	0.00893764
32.32	0.0089308
32.325	0.00892199
32.33	0.0089107
32.335	0.00889743
32.34	0.00888346
32.345	0.00887035
32.35	0.00885924
32.355	0.00885032
32.36	0.00884293
32.365	0.00883606
32.37	0.00882891
32.375	0.00882099
32.38	0.0088123
32.385	0.00880329
32.39	0.00879464
32.395	0.00878697
32.4	0.00878077
32.405	0.00877639
32.41	0.00877381
32.415	0.00877232
32.42	0.00877061
32.425	0.00876729
32.43	0.00876166
32.435	0.00875417
32.44	0.008746
32.445	0.00873821
32.45	0.00873103
32.455	0.00872376
32.46	0.0087152
32.465	0.00870421
32.47	0.00869022
32.475	0.00867345
32.48	0.00865504
32.485	0.00863663
32.49	0.00861944
32.495	0.00860357
32.5	0.00858802
32.505	0.0085715
32.51	0.00855329
32.515	0.00853376
32.52	0.00851407
32.525	0.00849531
32.53	0.00847792
32.535	0.00846154
32.54	0.00844537
32.545	0.00842844
32.55	0.00840989
32.555	0.00838946
32.56	0.00836759
32.565	0.0083447
32.57	0.00832013
32.575	0.00829234
32.58	0.00826051
32.585	0.00822576
32.59	0.00819075
32.595	0.00815812
32.6	0.00812942
32.605	0.00810485
32.61	0.0080832
32.615	0.00806204
32.62	0.00803902
32.625	0.00801365
32.63	0.00798775
32.635	0.00796367
32.64	0.00794224
32.645	0.00792241
32.65	0.00790257
32.655	0.00788188
32.66	0.00786025
32.665	0.00783768
32.67	0.00781399
32.675	0.00778923
32.68	0.00776414
32.685	0.00773976
32.69	0.00771654
32.695	0.00769403
32.7	0.00767157
32.705	0.00764902
32.71	0.00762697
32.715	0.00760624
32.72	0.00758732
32.725	0.00757006
32.73	0.00755392
32.735	0.00753813
32.74	0.0075219
32.745	0.00750468
32.75	0.00748618
32.755	0.00746618
32.76	0.00744465
32.765	0.00742233
32.77	0.00740071
32.775	0.00738117
32.78	0.00736406
32.785	0.00734866
32.79	0.00733387
32.795	0.00731865
32.8	0.00730241
32.805	0.00728537
32.81	0.00726855
32.815	0.0072529
32.82	0.00723854
32.825	0.00722494
32.83	0.00721181
32.835	0.00719937
32.84	0.0071878
32.845	0.00717693
32.85	0.00716645
32.855	0.00715638
32.86	0.00714676
32.865	0.00713708
32.87	0.00712635
32.875	0.00711384
32.88	0.00709984
32.885	0.00708556
32.89	0.0070721
32.895	0.00705944
32.9	0.00704643
32.905	0.00703187
32.91	0.00701531
32.915	0.00699711
32.92	0.00697794
32.925	0.00695835
32.93	0.00693853
32.935	0.00691829
32.94	0.00689768
32.945	0.00687735
32.95	0.00685823
32.955	0.00684068
32.96	0.00682442
32.965	0.00680901
32.97	0.00679418
32.975	0.00678
32.98	0.00676685
32.985	0.00675515
32.99	0.00674492
32.995	0.00673555
33	0.00672608
33.005	0.00671579
33.01	0.00670475
33.015	0.00669375
33.02	0.00668346
33.025	0.00667371
33.03	0.00666331
33.035	0.00665074
33.04	0.00663497
33.045	0.0066157
33.05	0.00659294
33.055	0.00656671
33.06	0.0065374
33.065	0.00650605
33.07	0.00647412
33.075	0.0064429
33.08	0.00641306
33.085	0.00638465
33.09	0.00635745
33.095	0.00633106
33.1	0.00630497
33.105	0.00627849
33.11	0.00625099
33.115	0.00622196
33.12	0.00619098
33.125	0.00615768
33.13	0.00612224
33.135	0.00608618
33.14	0.00605225
33.145	0.00602285
33.15	0.00599824
33.155	0.00597629
33.16	0.00595403
33.165	0.00592933
33.17	0.0059016
33.175	0.00587179
33.18	0.00584188
33.185	0.00581378
33.19	0.0057879
33.195	0.00576259
33.2	0.0057353
33.205	0.00570431
33.21	0.00566963
33.215	0.00563274
33.22	0.00559579
33.225	0.0055607
33.23	0.00552844
33.235	0.00549895
33.24	0.0054718
33.245	0.00544692
33.25	0.00542435
33.255	0.00540339
33.26	0.00538249
33.265	0.00536036
33.27	0.00533712
33.275	0.00531409
33.28	0.00529245
33.285	0.00527211
33.29	0.00525183
33.295	0.00523032
33.3	0.00520722
33.305	0.00518302
33.31	0.00515819
33.315	0.00513241
33.32	0.00510499
33.325	0.00507572
33.33	0.00504526
33.335	0.00501439
33.34	0.00498352
33.345	0.00495297
33.35	0.00492324
33.355	0.00489467
33.36	0.00486692
33.365	0.00483914
33.37	0.0048105
33.375	0.0047806
33.38	0.00474947
33.385	0.00471743
33.39	0.00468493
33.395	0.00465249
33.4	0.00462045
33.405	0.00458889
33.41	0.00455782
33.415	0.00452724
33.42	0.00449692
33.425	0.00446624
33.43	0.00443447
33.435	0.00440123
33.44	0.00436672
33.445	0.00433176
33.45	0.00429763
33.455	0.0042652
33.46	0.00423417
33.465	0.00420321
33.47	0.0041712
33.475	0.00413827
33.48	0.00410557
33.485	0.00407396
33.49	0.00404306
33.495	0.00401168
33.5	0.00397907
33.505	0.00394554
33.51	0.00391201
33.515	0.00387915
33.52	0.00384699
33.525	0.00381522
33.53	0.0037836
33.535	0.00375208
33.54	0.00372062
33.545	0.00368903
33.55	0.00365734
33.555	0.00362605
33.56	0.00359611
33.565	0.00356858
33.57	0.00354418
33.575	0.00352296
33.58	0.00350418
33.585	0.00348658
33.59	0.00346903
33.595	0.00345104
33.6	0.00343265
33.605	0.0034141
33.61	0.00339546
33.615	0.00337664
33.62	0.00335742
33.625	0.00333764
33.63	0.00331725
33.635	0.00329644
33.64	0.00327551
33.645	0.00325462
33.65	0.00323367
33.655	0.00321252
33.66	0.00319125
33.665	0.00317018
33.67	0.00314959
33.675	0.00312954
33.68	0.00310991
33.685	0.00309061
33.69	0.00307174
33.695	0.00305359
33.7	0.00303672
33.705	0.00302177
33.71	0.00300906
33.715	0.00299814
33.72	0.00298797
33.725	0.00297774
33.73	0.00296749
33.735	0.00295774
33.74	0.00294872
33.745	0.00294013
33.75	0.00293156
33.755	0.00292284
33.76	0.00291397
33.765	0.00290505
33.77	0.00289628
33.775	0.00288794
33.78	0.00288019
33.785	0.00287301
33.79	0.00286627
33.795	0.00285985
33.8	0.00285366
33.805	0.0028476
33.81	0.00284156
33.815	0.00283552
33.82	0.00282961
33.825	0.00282396
33.83	0.00281847
33.835	0.00281272
33.84	0.00280626
33.845	0.00279899
33.85	0.00279154
33.855	0.00278496
33.86	0.00278006
33.865	0.00277693
33.87	0.00277509
33.875	0.00277388
33.88	0.00277254
33.885	0.00277022
33.89	0.00276624
33.895	0.00276071
33.9	0.00275479
33.905	0.00275014
33.91	0.0027479
33.915	0.00274788
33.92	0.00274889
33.925	0.0027498
33.93	0.00275032
33.935	0.00275084
33.94	0.00275181
33.945	0.00275347
33.95	0.00275583
33.955	0.00275875
33.96	0.00276193
33.965	0.00276491
33.97	0.00276705
33.975	0.00276773
33.98	0.00276662
33.985	0.00276365
33.99	0.00275894
33.995	0.00275294
34	0.00274656
34.005	0.00274087
34.01	0.0027363
34.015	0.00273226
34.02	0.00272773
34.025	0.00272216
34.03	0.0027156
34.035	0.00270824
34.04	0.00270027
34.045	0.00269201
34.05	0.0026839
34.055	0.002676
34.06	0.0026681
34.065	0.0026602
34.07	0.00265263
34.075	0.00264565
34.08	0.00263908
34.085	0.00263235
34.09	0.00262486
34.095	0.00261648
34.1	0.00260766
34.105	0.00259911
34.11	0.00259115
34.115	0.00258369
34.12	0.00257658
34.125	0.00256987
34.13	0.00256369
34.135	0.00255806
34.14	0.00255285
34.145	0.00254787
34.15	0.00254303
34.155	0.00253834
34.16	0.0025339
34.165	0.00252969
34.17	0.00252553
34.175	0.00252109
34.18	0.00251607
34.185	0.00251042
34.19	0.00250435
34.195	0.00249831
34.2	0.00249275
34.205	0.00248788
34.21	0.00248363
34.215	0.0024798
34.22	0.00247638
34.225	0.00247356
34.23	0.00247141
34.235	0.0024695
34.24	0.00246699
34.245	0.00246329
34.25	0.00245845
34.255	0.00245281
34.26	0.00244628
34.265	0.0024382
34.27	0.002428
34.275	0.00241571
34.28	0.00240191
34.285	0.00238735
34.29	0.00237255
34.295	0.00235769
34.3	0.00234267
34.305	0.0023273
34.31	0.00231156
34.315	0.00229566
34.32	0.00227982
34.325	0.002264
34.33	0.00224804
34.335	0.00223212
34.34	0.00221687
34.345	0.00220285
34.35	0.0021899
34.355	0.00217739
34.36	0.00216495
34.365	0.00215273
34.37	0.00214102
34.375	0.00212981
34.38	0.00211873
34.385	0.00210744
34.39	0.00209593
34.395	0.00208447
34.4	0.00207337
34.405	0.00206283
34.41	0.00205291
34.415	0.0020436
34.42	0.00203484
34.425	0.00202654
34.43	0.00201868
34.435	0.00201132
34.44	0.00200454
34.445	0.00199827
34.45	0.00199241
34.455	0.00198687
34.46	0.00198146
34.465	0.00197568
34.47	0.00196904
34.475	0.0019615
34.48	0.00195349
34.485	0.00194545
34.49	0.00193753
34.495	0.00192972
34.5	0.00192206
34.505	0.00191446
34.51	0.0019067
34.515	0.00189855
34.52	0.00189007
34.525	0.00188148
34.53	0.00187298
34.535	0.00186446
34.54	0.00185552
34.545	0.00184588
34.55	0.00183578
34.555	0.00182588
34.56	0.00181681
34.565	0.00180884
34.57	0.00180188
34.575	0.00179557
34.58	0.00178942
34.585	0.00178291
34.59	0.00177577
34.595	0.00176802
34.6	0.00175985
34.605	0.00175154
34.61	0.00174343
34.615	0.00173584
34.62	0.00172891
34.625	0.00172261
34.63	0.00171678
34.635	0.00171121
34.64	0.0017056
34.645	0.00169958
34.65	0.00169294
34.655	0.00168576
34.66	0.00167841
34.665	0.00167128
34.67	0.00166459
34.675	0.00165833
34.68	0.00165245
34.685	0.00164701
34.69	0.00164217
34.695	0.00163802
34.7	0.00163441
34.705	0.00163096
34.71	0.00162711
34.715	0.00162251
34.72	0.00161712
34.725	0.00161121
34.73	0.00160513
34.735	0.00159922
34.74	0.00159372
34.745	0.00158878
34.75	0.00158444
34.755	0.00158056
34.76	0.00157696
34.765	0.00157361
34.77	0.00157076
34.775	0.00156882
34.78	0.00156813
34.785	0.00156872
34.79	0.0015702
34.795	0.00157202
34.8	0.0015738
34.805	0.00157541
34.81	0.00157673
34.815	0.00157761
34.82	0.00157798
34.825	0.00157788
34.83	0.00157734
34.835	0.00157626
34.84	0.00157454
34.845	0.00157224
34.85	0.00156958
34.855	0.00156685
34.86	0.00156428
34.865	0.00156189
34.87	0.00155949
34.875	0.00155686
34.88	0.00155389
34.885	0.00155058
34.89	0.00154701
34.895	0.00154334
34.9	0.00153992
34.905	0.00153712
34.91	0.00153512
34.915	0.00153369
34.92	0.0015323
34.925	0.00153051
34.93	0.0015282
34.935	0.00152567
34.94	0.00152342
34.945	0.00152185
34.95	0.00152094
34.955	0.0015203
34.96	0.00151934
34.965	0.00151762
34.97	0.00151509
34.975	0.0015121
34.98	0.0015091
34.985	0.00150615
34.99	0.00150292
34.995	0.00149914
35	0.00149494
35.005	0.00149078
35.01	0.00148719
35.015	0.00148461
35.02	0.0014834
35.025	0.00148373
35.03	0.00148535
35.035	0.00148759
35.04	0.00148981
35.045	0.00149179
35.05	0.00149393
35.055	0.00149685
35.06	0.00150099
35.065	0.00150646
35.07	0.00151326
35.075	0.0015214
35.08	0.0015308
35.085	0.00154125
35.09	0.00155253
35.095	0.00156447
35.1	0.00157703
35.105	0.00159017
35.11	0.00160386
35.115	0.00161799
35.12	0.00163235
35.125	0.00164673
35.13	0.00166109
35.135	0.00167542
35.14	0.00168964
35.145	0.00170349
35.15	0.00171682
35.155	0.00172968
35.16	0.00174216
35.165	0.00175424
35.17	0.00176575
35.175	0.0017766
35.18	0.00178689
35.185	0.00179679
35.19	0.00180649
35.195	0.0018161
35.2	0.00182559
35.205	0.00183493
35.21	0.00184404
35.215	0.00185281
35.22	0.00186098
35.225	0.00186834
35.23	0.00187489
35.235	0.00188085
35.24	0.00188638
35.245	0.00189148
35.25	0.00189604
35.255	0.00189998
35.26	0.00190347
35.265	0.00190676
35.27	0.00191004
35.275	0.00191328
35.28	0.0019164
35.285	0.00191947
35.29	0.00192264
35.295	0.00192593
35.3	0.00192911
35.305	0.00193204
35.31	0.00193487
35.315	0.00193802
35.32	0.00194187
35.325	0.00194655
35.33	0.00195194
35.335	0.00195776
35.34	0.00196345
35.345	0.0019683
35.35	0.00197174
35.355	0.00197375
35.36	0.00197489
35.365	0.0019758
35.37	0.00197674
35.375	0.00197751
35.38	0.0019777
35.385	0.00197709
35.39	0.00197568
35.395	0.00197363
35.4	0.00197119
35.405	0.00196865
35.41	0.00196628
35.415	0.00196421
35.42	0.00196254
35.425	0.00196145
35.43	0.00196105
35.435	0.00196114
35.44	0.00196134
35.445	0.0019614
35.45	0.00196146
35.455	0.00196191
35.46	0.00196301
35.465	0.00196454
35.47	0.00196594
35.475	0.00196669
35.48	0.00196673
35.485	0.0019664
35.49	0.00196614
35.495	0.00196632
35.5	0.00196718
35.505	0.00196882
35.51	0.00197116
35.515	0.00197406
35.52	0.00197741
35.525	0.00198122
35.53	0.00198567
35.535	0.00199102
35.54	0.00199742
35.545	0.00200456
35.55	0.00201157
35.555	0.00201744
35.56	0.00202158
35.565	0.00202424
35.57	0.00202609
35.575	0.00202759
35.58	0.00202877
35.585	0.00202953
35.59	0.00202982
35.595	0.00202945
35.6	0.0020279
35.605	0.00202475
35.61	0.00202003
35.615	0.00201411
35.62	0.00200727
35.625	0.00199966
35.63	0.00199147
35.635	0.0019829
35.64	0.00197394
35.645	0.00196441
35.65	0.0019544
35.655	0.00194443
35.66	0.00193502
35.665	0.00192636
35.67	0.00191841
35.675	0.00191106
35.68	0.00190405
35.685	0.00189695
35.69	0.00188942
35.695	0.0018814
35.7	0.00187308
35.705	0.00186457
35.71	0.00185569
35.715	0.00184597
35.72	0.00183491
35.725	0.00182224
35.73	0.0018081
35.735	0.0017931
35.74	0.0017781
35.745	0.00176386
35.75	0.00175064
35.755	0.00173815
35.76	0.00172607
35.765	0.00171431
35.77	0.00170302
35.775	0.0016922
35.78	0.00168157
35.785	0.00167083
35.79	0.00165986
35.795	0.00164875
35.8	0.00163768
35.805	0.00162681
35.81	0.00161618
35.815	0.00160585
35.82	0.001596
35.825	0.00158684
35.83	0.00157847
35.835	0.00157072
35.84	0.00156318
35.845	0.00155534
35.85	0.00154686
35.855	0.00153776
35.86	0.00152839
35.865	0.00151921
35.87	0.00151044
35.875	0.00150196
35.88	0.00149347
35.885	0.00148477
35.89	0.00147573
35.895	0.00146626
35.9	0.00145621
35.905	0.0014456
35.91	0.00143465
35.915	0.00142368
35.92	0.00141291
35.925	0.00140237
35.93	0.00139193
35.935	0.00138142
35.94	0.00137064
35.945	0.0013594
35.95	0.00134759
35.955	0.00133531
35.96	0.00132283
35.965	0.00131037
35.97	0.001298
35.975	0.00128564
35.98	0.00127325
35.985	0.00126087
35.99	0.00124866
35.995	0.00123681
36	0.00122549
36.005	0.00121481
36.01	0.00120468
36.015	0.00119488
36.02	0.00118519
36.025	0.00117552
36.03	0.00116586
36.035	0.00115614
36.04	0.00114629
36.045	0.00113632
36.05	0.00112631
36.055	0.00111645
36.06	0.00110696
36.065	0.0010981
36.07	0.00108997
36.075	0.0010825
36.08	0.00107543
36.085	0.00106847
36.09	0.00106143
36.095	0.00105437
36.1	0.00104748
36.105	0.00104084
36.11	0.00103437
36.115	0.00102794
36.12	0.00102148
36.125	0.00101508
36.13	0.00100888
36.135	0.00100304
36.14	0.000997739
36.145	0.000993083
36.15	0.000988929
36.155	0.000984939
36.16	0.000980855
36.165	0.000976717
36.17	0.000972719
36.175	0.000968898
36.18	0.000965046
36.185	0.000960946
36.19	0.000956661
36.195	0.000952506
36.2	0.000948697
36.205	0.000945033
36.21	0.000940961
36.215	0.000935968
36.22	0.000929879
36.225	0.000922845
36.23	0.000915134
36.235	0.000906987
36.24	0.000898559
36.245	0.000889922
36.25	0.000881089
36.255	0.000872062
36.26	0.000862877
36.265	0.000853612
36.27	0.000844337
36.275	0.000835051
36.28	0.000825682
36.285	0.000816166
36.29	0.000806508
36.295	0.000796748
36.3	0.000786916
36.305	0.000777063
36.31	0.000767332
36.315	0.000757944
36.32	0.000749031
36.325	0.000740499
36.33	0.000732067
36.335	0.000723448
36.34	0.000714504
36.345	0.000705285
36.35	0.000696001
36.355	0.000686947
36.36	0.000678395
36.365	0.000670469
36.37	0.000663101
36.375	0.000656122
36.38	0.000649406
36.385	0.000642928
36.39	0.00063672
36.395	0.00063078
36.4	0.000625043
36.405	0.000619409
36.41	0.000613817
36.415	0.000608302
36.42	0.000602993
36.425	0.000598044
36.43	0.000593541
36.435	0.000589434
36.44	0.000585583
36.445	0.000581856
36.45	0.000578168
36.455	0.000574401
36.46	0.000570394
36.465	0.000566076
36.47	0.000561563
36.475	0.000557083
36.48	0.000552788
36.485	0.000548613
36.49	0.000544305
36.495	0.000539596
36.5	0.00053439
36.505	0.000528827
36.51	0.000523161
36.515	0.000517563
36.52	0.000512024
36.525	0.000506414
36.53	0.000500624
36.535	0.000494644
36.54	0.000488539
36.545	0.00048238
36.55	0.000476218
36.555	0.000470077
36.56	0.00046394
36.565	0.000457756
36.57	0.000451506
36.575	0.000445254
36.58	0.000439083
36.585	0.000432982
36.59	0.000426863
36.595	0.000420706
36.6	0.000414643
36.605	0.000408836
36.61	0.000403316
36.615	0.000397965
36.62	0.000392662
36.625	0.000387384
36.63	0.000382149
36.635	0.000376938
36.64	0.0003717
36.645	0.000366438
36.65	0.000361222
36.655	0.000356077
36.66	0.000350912
36.665	0.000345614
36.67	0.000340187
36.675	0.000334752
36.68	0.000329403
36.685	0.000324104
36.69	0.000318733
36.695	0.000313186
36.7	0.000307422
36.705	0.000301458
36.71	0.000295358
36.715	0.000289201
36.72	0.000283045
36.725	0.000276907
36.73	0.000270795
36.735	0.00026475
36.74	0.000258841
36.745	0.000253112
36.75	0.000247516
36.755	0.000241945
36.76	0.000236335
36.765	0.000230745
36.77	0.000225336
36.775	0.000220268
36.78	0.000215605
36.785	0.000211308
36.79	0.000207299
36.795	0.000203539
36.8	0.000200023
36.805	0.000196741
36.81	0.000193641
36.815	0.000190656
36.82	0.000187746
36.825	0.000184921
36.83	0.000182233
36.835	0.000179735
36.84	0.000177433
36.845	0.000175268
36.85	0.00017315
36.855	0.000171018
36.86	0.000168878
36.865	0.000166781
36.87	0.00016477
36.875	0.00016283
36.88	0.00016089
36.885	0.00015888
36.89	0.000156786
36.895	0.000154644
36.9	0.000152511
36.905	0.000150453
36.91	0.000148539
36.915	0.000146806
36.92	0.000145224
36.925	0.000143713
36.93	0.000142199
36.935	0.000140656
36.94	0.000139106
36.945	0.000137573
36.95	0.00013605
36.955	0.000134513
36.96	0.000132956
36.965	0.000131403
36.97	0.000129879
36.975	0.000128392
36.98	0.000126937
36.985	0.000125513
36.99	0.000124123
36.995	0.000122769
37	0.000121432
37.005	0.000120083
37.01	0.000118703
37.015	0.000117298
37.02	0.000115889
37.025	0.000114497
37.03	0.000113127
37.035	0.00011177
37.04	0.000110414
37.045	0.000109063
37.05	0.000107742
37.055	0.000106458
37.06	0.00010518
37.065	0.000103855
37.07	0.000102453
37.075	0.000101001
37.08	9.95482e-05
37.085	9.81274e-05
37.09	9.67355e-05
37.095	9.53584e-05
37.1	9.39867e-05
37.105	9.26032e-05
37.11	9.11717e-05
37.115	8.96585e-05
37.12	8.80685e-05
37.125	8.64523e-05
37.13	8.48691e-05
37.135	8.33391e-05
37.14	8.18293e-05
37.145	8.02728e-05
37.15	7.85886e-05
37.155	7.66887e-05
37.16	7.44908e-05
37.165	7.19558e-05
37.17	6.914e-05
37.175	6.62253e-05
37.18	6.3482e-05
37.185	6.1159e-05
37.19	5.9373e-05
37.195	5.80841e-05
37.2	5.71581e-05
37.205	5.64446e-05
37.21	5.58181e-05
37.215	5.51885e-05
37.22	5.45048e-05
37.225	5.3758e-05
37.23	5.29684e-05
37.235	5.21605e-05
37.24	5.13452e-05
37.245	5.05184e-05
37.25	4.96711e-05
37.255	4.88033e-05
37.26	4.79331e-05
37.265	4.70854e-05
37.27	4.6265e-05
37.275	4.54405e-05
37.28	4.45538e-05
37.285	4.35517e-05
37.29	4.24238e-05
37.295	4.12264e-05
37.3	4.00586e-05
37.305	3.89992e-05
37.31	3.80585e-05
37.315	3.71902e-05
37.32	3.6341e-05
37.325	3.54857e-05
37.33	3.46206e-05
37.335	3.37384e-05
37.34	3.28185e-05
37.345	3.18417e-05
37.35	3.08058e-05
37.355	2.97264e-05
37.36	2.86222e-05
37.365	2.74986e-05
37.37	2.63444e-05
37.375	2.5152e-05
37.38	2.39428e-05
37.385	2.27674e-05
37.39	2.16767e-05
37.395	2.06954e-05
37.4	1.98205e-05
37.405	1.90344e-05
37.41	1.83168e-05
37.415	1.76517e-05
37.42	1.70303e-05
37.425	1.64496e-05
37.43	1.59101e-05
37.435	1.54152e-05
37.44	1.49732e-05
37.445	1.45903e-05
37.45	1.42608e-05
37.455	1.39665e-05
37.46	1.36899e-05
37.465	1.34249e-05
37.47	1.31744e-05
37.475	1.29417e-05
37.48	1.27261e-05
37.485	1.25236e-05
37.49	1.23308e-05
37.495	1.21482e-05
37.5	1.19779e-05
37.505	1.18163e-05
37.51	1.16532e-05
37.515	1.14806e-05
37.52	1.13021e-05
37.525	1.11289e-05
37.53	1.09701e-05
37.535	1.08274e-05
37.54	1.06975e-05
37.545	1.05758e-05
37.55	1.04592e-05
37.555	1.03451e-05
37.56	1.02295e-05
37.565	1.01083e-05
37.57	9.98044e-06
37.575	9.84648e-06
37.58	9.70575e-06
37.585	9.56081e-06
37.59	9.42147e-06
37.595	9.29535e-06
37.6	9.17392e-06
37.605	9.03647e-06
37.61	8.87205e-06
37.615	8.69256e-06
37.62	8.5195e-06
37.625	8.36083e-06
37.63	8.20495e-06
37.635	8.03461e-06
37.64	7.8419e-06
37.645	7.63183e-06
37.65	7.41787e-06
37.655	7.21474e-06
37.66	7.03092e-06
37.665	6.86616e-06
37.67	6.71588e-06
37.675	6.57575e-06
37.68	6.44114e-06
37.685	6.30535e-06
37.69	6.16193e-06
37.695	6.01018e-06
37.7	5.85775e-06
37.705	5.71536e-06
37.71	5.58696e-06
37.715	5.46597e-06
37.72	5.3434e-06
37.725	5.21753e-06
37.73	5.09221e-06
37.735	4.96767e-06
37.74	4.83757e-06
37.745	4.69627e-06
37.75	4.54561e-06
37.755	4.39256e-06
37.76	4.24113e-06
37.765	4.08836e-06
37.77	3.92821e-06
37.775	3.75702e-06
37.78	3.57411e-06
37.785	3.37964e-06
37.79	3.1744e-06
37.795	2.96007e-06
37.8	2.73786e-06
37.805	2.50832e-06
37.81	2.27448e-06
37.815	2.04279e-06
37.82	1.81861e-06
37.825	1.60274e-06
37.83	1.39472e-06
37.835	1.19787e-06
37.84	1.0183e-06
37.845	8.59534e-07
37.85	7.20048e-07
37.855	5.95736e-07
37.86	4.82972e-07
37.865	3.79215e-07
37.87	2.8327e-07
37.875	1.96704e-07
37.88	1.23975e-07
37.885	6.94982e-08
37.89	3.41492e-08
37.895	1.45717e-08
37.9	5.37113e-09
37.905	1.70476e-09
37.91	4.64388e-10
37.915	1.07987e-10
37.92	2.12547e-11
37.925	3.50272e-12
37.93	4.77719e-13
37.935	5.33482e-14
37.94	4.83557e-15
37.945	3.53422e-16
37.95	2.07302e-17
37.955	9.72549e-19
37.96	3.64027e-20
37.965	1.08487e-21
37.97	2.56935e-23
37.975	4.82672e-25
37.98	7.17836e-27
37.985	8.43503e-29
37.99	7.81613e-31
37.995	5.70075e-33
38	3.2671e-35
38.005	1.46897e-37
38.01	5.17492e-40
38.015	1.42671e-42
38.02	3.07536e-45
38.025	5.17891e-48
38.03	6.80905e-51
38.035	6.98576e-54
38.04	5.59036e-57
38.045	3.48835e-60
38.05	1.69685e-63
38.055	6.43303e-67
38.06	1.90051e-70
38.065	4.37471e-74
38.07	7.8453e-78
38.075	1.09602e-81
38.08	1.19274e-85
38.085	1.01106e-89
38.09	6.67558e-94
38.095	3.43299e-98
38.1	1.37505e-102
38.105	4.28961e-107
38.11	1.04223e-111
38.115	1.97221e-116
38.12	2.90658e-121
38.125	3.33616e-126
38.13	2.98226e-131
38.135	2.07624e-136
38.14	1.12575e-141
38.145	4.75372e-147
38.15	1.56335e-152
38.155	4.00411e-158
38.16	7.98702e-164
38.165	1.24077e-169
38.17	1.50115e-175
38.175	1.41445e-181
38.18	1.03795e-187
38.185	5.93184e-194
38.19	2.64017e-200
38.195	9.15166e-207
38.2	2.47056e-213
38.205	5.19418e-220
38.21	8.50482e-227
38.215	1.08453e-233
38.22	1.07706e-240
38.225	8.33045e-248
38.23	5.01791e-255
38.235	2.35398e-262
38.24	8.60023e-270
38.245	2.44705e-277
38.25	5.42254e-285
38.255	9.35813e-293
38.26	1.25777e-300
38.265	0
38.27	0
38.275	0
38.28	0
38.285	0
38.29	0
38.295	0
38.3	0
38.305	0
38.31	0
38.315	0
38.32	0
38.325	0
38.33	0
38.335	0
38.34	0
38.345	0
38.35	0
38.355	0
38.36	0
38.365	0
38.37	0
38.375	0
38.38	0
38.385	0
38.39	0
38.395	0
38.4	0
38.405	0
38.41	0
38.415	0
38.42	0
38.425	0
38.43	0
38.435	0
38.44	0
38.445	0
38.45	0
38.455	0
38.46	0
38.465	0
38.47	0
38.475	0
38.48	0
38.485	0
38.49	0
38.495	0
38.5	0
38.505	0
38.51	0
38.515	0
38.52	0
38.525	0
38.53	0
38.535	0
38.54	0
38.545	0
38.55	0
38.555	0
38.56	0
38.565	0
38.57	0
38.575	0
38.58	0
38.585	0
38.59	0
38.595	0
38.6	0
38.605	0
38.61	0
38.615	0
38.62	0
38.625	0
38.63	0
38.635	0
38.64	0
38.645	0
38.65	0
38.655	0
38.66	0
38.665	0
38.67	0
38.675	0
38.68	0
38.685	0
38.69	0
38.695	0
38.7	0
38.705	0
38.71	0
38.715	0
38.72	0
38.725	0
38.73	0
38.735	0
38.74	0
38.745	0
38.75	0
38.755	0
38.76	0
38.765	0
38.77	0
38.775	0
38.78	0
38.785	0
38.79	0
38.795	0
38.8	0
38.805	0
38.81	0
38.815	0
38.82	0
38.825	0
38.83	0
38.835	0
38.84	0
38.845	0
38.85	0
38.855	0
38.86	0
38.865	0
38.87	0
38.875	0
38.88	0
38.885	0
38.89	0
38.895	0
38.9	0
38.905	0
38.91	0
38.915	0
38.92	0
38.925	0
38.93	0
38.935	0
38.94	0
38.945	0
38.95	0
38.955	0
38.96	0
38.965	0
38.97	0
38.975	0
38.98	0
38.985	0
38.99	0
38.995	0
39	0
39.005	0
39.01	0
39.015	0
39.02	0
39.025	0
39.03	0
39.035	0
39.04	0
39.045	0
39.05	0
39.055	0
39.06	0
39.065	0
39.07	0
39.075	0
39.08	0
39.085	0
39.09	0
39.095	0
39.1	0
39.105	0
39.11	0
39.115	0
39.12	0
39.125	0
39.13	0
39.135	0
39.14	0
39.145	0
39.15	0
39.155	0
39.16	0
39.165	0
39.17	0
39.175	0
39.18	0
39.185	0
39.19	0
39.195	0
39.2	0
39.205	0
39.21	0
39.215	0
39.22	0
39.225	0
39.23	0
39.235	0
39.24	0
39.245	0
39.25	0
39.255	0
39.26	0
39.265	0
39.27	0
39.275	0
39.28	0
39.285	0
39.29	0
39.295	0
39.3	0
39.305	0
39.31	0
39.315	0
39.32	0
39.325	0
39.33	0
39.335	0
39.34	0
39.345	0
39.35	0
39.355	0
39.36	0
39.365	0
39.37	0
39.375	0
39.38	0
39.385	0
39.39	0
39.395	0
39.4	0
39.405	0
39.41	0
39.415	0
39.42	0
39.425	0
39.43	0
39.435	0
39.44	0
39.445	0
39.45	0
39.455	0
39.46	0
39.465	0
39.47	0
39.475	0
39.48	0
39.485	0
39.49	0
39.495	0
39.5	0
39.505	0
39.51	0
39.515	0
39.52	0
39.525	0
39.53	0
39.535	0
39.54	0
39.545	0
39.55	0
39.555	0
39.56	0
39.565	0
39.57	0
39.575	0
39.58	0
39.585	0
39.59	0
39.595	0
39.6	0
39.605	0
39.61	0
39.615	0
39.62	0
39.625	0
39.63	0
39.635	0
39.64	0
39.645	0
39.65	0
39.655	0
39.66	0
39.665	0
39.67	0
39.675	0
39.68	0
39.685	0
39.69	0
39.695	0
39.7	0
39.705	0
39.71	0
39.715	0
39.72	0
39.725	0
39.73	0
39.735	0
39.74	0
39.745	0
39.75	0
39.755	0
39.76	0
39.765	0
39.77	0
39.775	0
39.78	0
39.785	0
39.79	0
39.795	0
39.8	0
39.805	0
39.81	0
39.815	0
39.82	0
39.825	0
39.83	0
39.835	0
39.84	0
39.845	0
39.85	0
39.855	0
39.86	0
39.865	0
39.87	0
39.875	0
39.88	0
39.885	0
39.89	0
39.895	0
39.9	0
39.905	0
39.91	0
39.915	0
39.92	0
39.925	0
39.93	0
39.935	0
39.94	0
39.945	0
39.95	0
39.955	0
39.96	0
39.965	0
39.97	0
39.975	0
39.98	0
39.985	0
39.99	0
39.995	0
40	0
40.005	0
40.01	0
40.015	0
40.02	0
40.025	0
40.03	0
40.035	0
40.04	0
40.045	0
40.05	0
40.055	0
40.06	0
40.065	0
40.07	0
40.075	0
40.08	0
40.085	0
40.09	0
40.095	0
40.1	0
40.105	0
40.11	0
40.115	0
40.12	0
40.125	0
40.13	0
40.135	0
40.14	0
40.145	0
40.15	0
40.155	0
40.16	0
40.165	0
40.17	0
40.175	0
40.18	0
40.185	0
40.19	0
40.195	0
40.2	0
40.205	0
40.21	0
40.215	0
40.22	0
40.225	0
40.23	0
40.235	0
40.24	0
40.245	0
40.25	0
40.255	0
40.26	0
40.265	0
40.27	0
40.275	0
40.28	0
40.285	0
40.29	0
40.295	0
40.3	0
40.305	0
40.31	0
40.315	0
40.32	0
40.325	0
40.33	0
40.335	0
40.34	0
40.345	0
40.35	0
40.355	0
40.36	0
40.365	0
40.37	0
40.375	0
40.38	0
40.385	0
40.39	0
40.395	0
40.4	0
40.405	0
40.41	0
40.415	0
40.42	0
40.425	0
40.43	0
40.435	0
40.44	0
40.445	0
40.45	0
40.455	0
40.46	0
40.465	0
40.47	0
40.475	0
40.48	0
40.485	0
40.49	0
40.495	0
40.5	0
40.505	0
40.51	0
40.515	0
40.52	0
40.525	0
40.53	0
40.535	0
40.54	0
40.545	0
40.55	0
40.555	0
40.56	0
40.565	0
40.57	0
40.575	0
40.58	0
40.585	0
40.59	0
40.595	0
40.6	0
40.605	0
40.61	0
40.615	0
40.62	0
40.625	0
40.63	0
40.635	0
40.64	0
40.645	0
40.65	0
40.655	0
40.66	0
40.665	0
40.67	0
40.675	0
40.68	0
40.685	0
40.69	0
40.695	0
40.7	0
40.705	0
40.71	0
40.715	0
40.72	0
40.725	0
40.73	0
40.735	0
40.74	0
40.745	0
40.75	0
40.755	0
40.76	0
40.765	0
40.77	0
40.775	0
